TITLE	
DATA TYPE	ULTRAVIOLET SPECTRUM
ORIGIN	JASCO
OWNER	
DATE	14/02/14
TIME	16:25:34
SPECTROMETER/DATA SYSTEM	
LOCALE	1041
RESOLUTION	
DELTAX	-0.5
XUNITS	NANOMETERS
YUNITS	ABSORBANCE
FIRSTX	  700.0000
LASTX	  300.0000
NPOINTS	     801
FIRSTY	     0.01067
MAXY	     0.55621
MINY	     0.00880
XYDATA
700.0000	0.0106675
699.5000	0.010731
699.0000	0.0107716
698.5000	0.0107892
698.0000	0.0107952
697.5000	0.0108206
697.0000	0.0108442
696.5000	0.0108908
696.0000	0.0109073
695.5000	0.0109206
695.0000	0.010933
694.5000	0.0109487
694.0000	0.0109621
693.5000	0.0109651
693.0000	0.0109802
692.5000	0.0109759
692.0000	0.0109821
691.5000	0.0110077
691.0000	0.0110142
690.5000	0.0109969
690.0000	0.0109827
689.5000	0.0109932
689.0000	0.0110064
688.5000	0.0110103
688.0000	0.0110029
687.5000	0.0110024
687.0000	0.0110116
686.5000	0.0110058
686.0000	0.0109955
685.5000	0.010962
685.0000	0.0109262
684.5000	0.0108886
684.0000	0.0108794
683.5000	0.0108651
683.0000	0.0108485
682.5000	0.0108256
682.0000	0.0108099
681.5000	0.0107774
681.0000	0.0107546
680.5000	0.0107045
680.0000	0.0106501
679.5000	0.0106197
679.0000	0.0106077
678.5000	0.0105836
678.0000	0.0105544
677.5000	0.0105073
677.0000	0.0104891
676.5000	0.0104345
676.0000	0.0103886
675.5000	0.0103173
675.0000	0.0102817
674.5000	0.0102196
674.0000	0.0101675
673.5000	0.0101278
673.0000	0.0100775
672.5000	0.00999227
672.0000	0.00996237
671.5000	0.00990055
671.0000	0.00987848
670.5000	0.00979725
670.0000	0.00974582
669.5000	0.00966822
669.0000	0.00965996
668.5000	0.00961135
668.0000	0.00960074
667.5000	0.00955685
667.0000	0.00953872
666.5000	0.00950287
666.0000	0.00947231
665.5000	0.00942347
665.0000	0.00940433
664.5000	0.00934348
664.0000	0.00932064
663.5000	0.00929169
663.0000	0.00928647
662.5000	0.0092399
662.0000	0.0092017
661.5000	0.0091656
661.0000	0.00913585
660.5000	0.00908379
660.0000	0.00904662
659.5000	0.008992
659.0000	0.00896618
658.5000	0.00894521
658.0000	0.0089347
657.5000	0.00889753
657.0000	0.00888888
656.5000	0.00885796
656.0000	0.00882344
655.5000	0.00881323
655.0000	0.00879841
654.5000	0.00880491
654.0000	0.00881696
653.5000	0.00882266
653.0000	0.00883728
652.5000	0.0088415
652.0000	0.00882956
651.5000	0.00881702
651.0000	0.00882894
650.5000	0.00883472
650.0000	0.00883641
649.5000	0.00885229
649.0000	0.00885116
648.5000	0.00889885
648.0000	0.00890014
647.5000	0.00890959
647.0000	0.00893011
646.5000	0.00895151
646.0000	0.0089867
645.5000	0.00903635
645.0000	0.00907785
644.5000	0.00911784
644.0000	0.00915147
643.5000	0.00919177
643.0000	0.00922353
642.5000	0.00927145
642.0000	0.00929467
641.5000	0.0093388
641.0000	0.00938565
640.5000	0.00943635
640.0000	0.00949414
639.5000	0.00953745
639.0000	0.00956459
638.5000	0.00963663
638.0000	0.00969195
637.5000	0.00974793
637.0000	0.00980274
636.5000	0.00989868
636.0000	0.00992857
635.5000	0.00998964
635.0000	0.0100374
634.5000	0.0101006
634.0000	0.0101434
633.5000	0.0102149
633.0000	0.0102759
632.5000	0.0103645
632.0000	0.0104122
631.5000	0.0104887
631.0000	0.0105582
630.5000	0.0106522
630.0000	0.01071
629.5000	0.0108271
629.0000	0.0109069
628.5000	0.011044
628.0000	0.0111193
627.5000	0.0112478
627.0000	0.0113151
626.5000	0.0114266
626.0000	0.0115203
625.5000	0.0116641
625.0000	0.0117372
624.5000	0.0118704
624.0000	0.0119547
623.5000	0.0120711
623.0000	0.0121565
622.5000	0.0123021
622.0000	0.0123723
621.5000	0.0125142
621.0000	0.0125854
620.5000	0.01273
620.0000	0.012832
619.5000	0.0129705
619.0000	0.0130522
618.5000	0.0131983
618.0000	0.0133077
617.5000	0.0134444
617.0000	0.0135546
616.5000	0.0137255
616.0000	0.0138181
615.5000	0.0139747
615.0000	0.0140716
614.5000	0.0142368
614.0000	0.0143465
613.5000	0.0145218
613.0000	0.0146266
612.5000	0.0148083
612.0000	0.0149492
611.5000	0.0151232
611.0000	0.0152428
610.5000	0.0154085
610.0000	0.0155381
609.5000	0.0157274
609.0000	0.015847
608.5000	0.0160747
608.0000	0.0162214
607.5000	0.0164545
607.0000	0.0165816
606.5000	0.0167953
606.0000	0.0169408
605.5000	0.0171669
605.0000	0.0173176
604.5000	0.0175559
604.0000	0.0177443
603.5000	0.018001
603.0000	0.018161
602.5000	0.0184336
602.0000	0.0186106
601.5000	0.0188697
601.0000	0.0190421
600.5000	0.0193401
600.0000	0.0197169
599.5000	0.0200159
599.0000	0.0202119
598.5000	0.020539
598.0000	0.0207297
597.5000	0.0210799
597.0000	0.0212982
596.5000	0.0216178
596.0000	0.0218326
595.5000	0.0221992
595.0000	0.0224173
594.5000	0.0227898
594.0000	0.0230404
593.5000	0.0234407
593.0000	0.0236858
592.5000	0.0240617
592.0000	0.0243152
591.5000	0.0247283
591.0000	0.0250201
590.5000	0.0254476
590.0000	0.0257352
589.5000	0.0261869
589.0000	0.0264736
588.5000	0.0269364
588.0000	0.0272253
587.5000	0.0276869
587.0000	0.0279987
586.5000	0.0285222
586.0000	0.0288476
585.5000	0.029378
585.0000	0.0297508
584.5000	0.0302877
584.0000	0.0306756
583.5000	0.0312307
583.0000	0.0316226
582.5000	0.0322267
582.0000	0.0326307
581.5000	0.0332724
581.0000	0.033701
580.5000	0.034376
580.0000	0.0348165
579.5000	0.0355138
579.0000	0.0359787
578.5000	0.0366622
578.0000	0.0371334
577.5000	0.03784
577.0000	0.0383377
576.5000	0.0390878
576.0000	0.0396136
575.5000	0.0403712
575.0000	0.0408915
574.5000	0.0417
574.0000	0.0422399
573.5000	0.0430602
573.0000	0.0436152
572.5000	0.0444955
572.0000	0.0451117
571.5000	0.0460121
571.0000	0.0466358
570.5000	0.0475857
570.0000	0.0482363
569.5000	0.0492292
569.0000	0.049904
568.5000	0.0509252
568.0000	0.051603
567.5000	0.0526473
567.0000	0.0533454
566.5000	0.0544195
566.0000	0.0551342
565.5000	0.0562325
565.0000	0.0569744
564.5000	0.0580941
564.0000	0.0588537
563.5000	0.0599918
563.0000	0.0607631
562.5000	0.0619435
562.0000	0.0627319
561.5000	0.0639483
561.0000	0.0647495
560.5000	0.0659984
560.0000	0.0668243
559.5000	0.0680447
559.0000	0.0688844
558.5000	0.0701686
558.0000	0.0710231
557.5000	0.0722767
557.0000	0.0731346
556.5000	0.0744349
556.0000	0.0752859
555.5000	0.0765843
555.0000	0.0774359
554.5000	0.0787384
554.0000	0.0796151
553.5000	0.0809114
553.0000	0.0817556
552.5000	0.0830383
552.0000	0.0838854
551.5000	0.0851444
551.0000	0.0859878
550.5000	0.0872297
550.0000	0.08805
549.5000	0.0892639
549.0000	0.0900548
548.5000	0.091243
548.0000	0.0919984
547.5000	0.093106
547.0000	0.0938393
546.5000	0.0949287
546.0000	0.0956372
545.5000	0.0966434
545.0000	0.0972831
544.5000	0.0982379
544.0000	0.0988469
543.5000	0.0996909
543.0000	0.100249
542.5000	0.101055
542.0000	0.10156
541.5000	0.102262
541.0000	0.102705
540.5000	0.103343
540.0000	0.103723
539.5000	0.104244
539.0000	0.104559
538.5000	0.105002
538.0000	0.105237
537.5000	0.105538
537.0000	0.105742
536.5000	0.105971
536.0000	0.106087
535.5000	0.106209
535.0000	0.106247
534.5000	0.106248
534.0000	0.106237
533.5000	0.106155
533.0000	0.10606
532.5000	0.105873
532.0000	0.105745
531.5000	0.105504
531.0000	0.105313
530.5000	0.104973
530.0000	0.104725
529.5000	0.104298
529.0000	0.103964
528.5000	0.1035
528.0000	0.103163
527.5000	0.102606
527.0000	0.102201
526.5000	0.101574
526.0000	0.10115
525.5000	0.100456
525.0000	0.0999826
524.5000	0.0992347
524.0000	0.0987041
523.5000	0.0978992
523.0000	0.0973406
522.5000	0.096512
522.0000	0.0959356
521.5000	0.0950456
521.0000	0.0944383
520.5000	0.0934995
520.0000	0.0930043
519.5000	0.0920389
519.0000	0.0914033
518.5000	0.0904209
518.0000	0.0897539
517.5000	0.0887878
517.0000	0.0881186
516.5000	0.087126
516.0000	0.0864372
515.5000	0.0854554
515.0000	0.0848074
514.5000	0.0838051
514.0000	0.083127
513.5000	0.082157
513.0000	0.0814954
512.5000	0.0804971
512.0000	0.0798262
511.5000	0.0788139
511.0000	0.0781715
510.5000	0.0771904
510.0000	0.0765298
509.5000	0.0755372
509.0000	0.0748921
508.5000	0.073938
508.0000	0.073301
507.5000	0.0723369
507.0000	0.0716826
506.5000	0.0707689
506.0000	0.0701577
505.5000	0.0692353
505.0000	0.0686072
504.5000	0.0676915
504.0000	0.0671003
503.5000	0.0661995
503.0000	0.0656075
502.5000	0.0647239
502.0000	0.0641381
501.5000	0.0632614
501.0000	0.0626779
500.5000	0.0618419
500.0000	0.0612704
499.5000	0.0603947
499.0000	0.0598199
498.5000	0.0590216
498.0000	0.0584574
497.5000	0.057615
497.0000	0.0570495
496.5000	0.0562466
496.0000	0.055692
495.5000	0.0548579
495.0000	0.0543043
494.5000	0.053534
494.0000	0.0530108
493.5000	0.0521923
493.0000	0.0516622
492.5000	0.0509316
492.0000	0.050405
491.5000	0.0496303
491.0000	0.0491373
490.5000	0.0484343
490.0000	0.0479572
489.5000	0.0472379
489.0000	0.046773
488.5000	0.0460908
488.0000	0.045633
487.5000	0.0449461
487.0000	0.0444931
486.5000	0.0438667
486.0000	0.0434222
485.5000	0.0427663
485.0000	0.0423568
484.5000	0.0417451
484.0000	0.0413497
483.5000	0.0407673
483.0000	0.0403674
482.5000	0.0398145
482.0000	0.0394782
481.5000	0.0389466
481.0000	0.0386006
480.5000	0.0381128
480.0000	0.0377977
479.5000	0.0373476
479.0000	0.0370824
478.5000	0.0366851
478.0000	0.0364407
477.5000	0.0360583
477.0000	0.0357949
476.5000	0.0354973
476.0000	0.0352988
475.5000	0.0350224
475.0000	0.0348723
474.5000	0.0346672
474.0000	0.0345699
473.5000	0.0344208
473.0000	0.0343574
472.5000	0.0342951
472.0000	0.03429
471.5000	0.0343291
471.0000	0.0343952
470.5000	0.0345634
470.0000	0.0346971
469.5000	0.0349977
469.0000	0.0352254
468.5000	0.0356329
468.0000	0.0359627
467.5000	0.0365586
467.0000	0.0370008
466.5000	0.0377877
466.0000	0.0384108
465.5000	0.0394483
465.0000	0.0401997
464.5000	0.0415226
464.0000	0.042501
463.5000	0.0441539
463.0000	0.0453575
462.5000	0.0473577
462.0000	0.0488471
461.5000	0.0512904
461.0000	0.0530444
460.5000	0.0559465
460.0000	0.05802
459.5000	0.0613191
459.0000	0.0637162
458.5000	0.0675325
458.0000	0.0702102
457.5000	0.0744444
457.0000	0.0773711
456.5000	0.0819225
456.0000	0.085061
455.5000	0.0897766
455.0000	0.0929571
454.5000	0.0976985
454.0000	0.100801
453.5000	0.105348
453.0000	0.108245
452.5000	0.11237
452.0000	0.114866
451.5000	0.118277
451.0000	0.120283
450.5000	0.122898
450.0000	0.124324
449.5000	0.126009
449.0000	0.126813
448.5000	0.127574
448.0000	0.127766
447.5000	0.127611
447.0000	0.127233
446.5000	0.12629
446.0000	0.125396
445.5000	0.123806
445.0000	0.122555
444.5000	0.120414
444.0000	0.118861
443.5000	0.116351
443.0000	0.11462
442.5000	0.111898
442.0000	0.110016
441.5000	0.107168
441.0000	0.105263
440.5000	0.102383
440.0000	0.100491
439.5000	0.0977426
439.0000	0.0959848
438.5000	0.0934565
438.0000	0.0918558
437.5000	0.0896458
437.0000	0.0882999
436.5000	0.0864281
436.0000	0.0853294
435.5000	0.0839387
435.0000	0.0831879
434.5000	0.0823111
434.0000	0.0819325
433.5000	0.0816504
433.0000	0.0816404
432.5000	0.0819021
432.0000	0.0822598
431.5000	0.0830767
431.0000	0.0838321
430.5000	0.0851098
430.0000	0.0861454
429.5000	0.0878983
429.0000	0.089192
428.5000	0.0912204
428.0000	0.0926412
427.5000	0.0948386
427.0000	0.0962821
426.5000	0.0984114
426.0000	0.0997704
425.5000	0.101708
425.0000	0.102914
424.5000	0.104489
424.0000	0.105451
423.5000	0.10661
423.0000	0.107202
422.5000	0.107811
422.0000	0.108025
421.5000	0.108042
421.0000	0.107846
420.5000	0.107294
420.0000	0.106872
419.5000	0.105805
419.0000	0.104928
418.5000	0.103395
418.0000	0.102254
417.5000	0.100298
417.0000	0.0989167
416.5000	0.0967053
416.0000	0.0951755
415.5000	0.0927356
415.0000	0.0911185
414.5000	0.0886355
414.0000	0.0870063
413.5000	0.084596
413.0000	0.0830326
412.5000	0.0807313
412.0000	0.0792714
411.5000	0.0771238
411.0000	0.0757959
410.5000	0.0739387
410.0000	0.0727836
409.5000	0.0711744
409.0000	0.0702054
408.5000	0.0689328
408.0000	0.0682176
407.5000	0.067279
407.0000	0.0667505
406.5000	0.0660875
406.0000	0.0657393
405.5000	0.0653911
405.0000	0.0652203
404.5000	0.0650537
404.0000	0.0650006
403.5000	0.0649925
403.0000	0.0650987
402.5000	0.0652251
402.0000	0.0653098
401.5000	0.0654409
401.0000	0.0655262
400.5000	0.0656284
400.0000	0.0656164
399.5000	0.0655566
399.0000	0.0654777
398.5000	0.0652941
398.0000	0.0651094
397.5000	0.0647797
397.0000	0.0644916
396.5000	0.0639332
396.0000	0.0635295
395.5000	0.06288
395.0000	0.0623426
394.5000	0.0614742
394.0000	0.0608791
393.5000	0.0600045
393.0000	0.0593463
392.5000	0.058396
392.0000	0.0577742
391.5000	0.0568581
391.0000	0.0561596
390.5000	0.0551654
390.0000	0.0545578
389.5000	0.0536828
389.0000	0.053131
388.5000	0.0523313
388.0000	0.0518595
387.5000	0.0511543
387.0000	0.050732
386.5000	0.0501706
386.0000	0.0498439
385.5000	0.0494007
385.0000	0.0491598
384.5000	0.0488833
384.0000	0.0487399
383.5000	0.0485607
383.0000	0.0484364
382.5000	0.0483329
382.0000	0.0483114
381.5000	0.0482767
381.0000	0.0482977
380.5000	0.0483656
380.0000	0.0483855
379.5000	0.0484765
379.0000	0.0485173
378.5000	0.0485644
378.0000	0.0486194
377.5000	0.0487052
377.0000	0.048716
376.5000	0.0487852
376.0000	0.0487874
375.5000	0.0488335
375.0000	0.0488508
374.5000	0.0488607
374.0000	0.0488358
373.5000	0.0488111
373.0000	0.0487317
372.5000	0.048675
372.0000	0.0486602
371.5000	0.048611
371.0000	0.0485909
370.5000	0.0485667
370.0000	0.0487509
369.5000	0.0487761
369.0000	0.0487571
368.5000	0.0487765
368.0000	0.0488229
367.5000	0.048895
367.0000	0.0489988
366.5000	0.0491665
366.0000	0.0492451
365.5000	0.0494581
365.0000	0.0496144
364.5000	0.0498915
364.0000	0.05005
363.5000	0.0502806
363.0000	0.0504231
362.5000	0.0507836
362.0000	0.0509504
361.5000	0.0512592
361.0000	0.0514642
360.5000	0.051743
360.0000	0.0519799
359.5000	0.0523487
359.0000	0.0524971
358.5000	0.0527804
358.0000	0.0529269
357.5000	0.0532247
357.0000	0.0533115
356.5000	0.0535467
356.0000	0.0536297
355.5000	0.0538274
355.0000	0.0539372
354.5000	0.0540751
354.0000	0.0542361
353.5000	0.054313
353.0000	0.0544106
352.5000	0.0545638
352.0000	0.0546459
351.5000	0.0547423
351.0000	0.0547298
350.5000	0.0548656
350.0000	0.0549816
349.5000	0.0551018
349.0000	0.0551909
348.5000	0.0552456
348.0000	0.0553562
347.5000	0.0553315
347.0000	0.0554205
346.5000	0.0555523
346.0000	0.0556073
345.5000	0.0556813
345.0000	0.0557455
344.5000	0.0558817
344.0000	0.0559874
343.5000	0.0560439
343.0000	0.0561284
342.5000	0.0562336
342.0000	0.0563348
341.5000	0.0563804
341.0000	0.0564775
340.5000	0.0565545
340.0000	0.0577905
339.5000	0.057993
339.0000	0.0581494
338.5000	0.0583399
338.0000	0.0585452
337.5000	0.0588784
337.0000	0.0590859
336.5000	0.0594499
336.0000	0.059666
335.5000	0.0600771
335.0000	0.0603846
334.5000	0.0609612
334.0000	0.0613388
333.5000	0.061993
333.0000	0.0624774
332.5000	0.0632762
332.0000	0.0638218
331.5000	0.0646351
331.0000	0.0652643
330.5000	0.0663045
330.0000	0.0671485
329.5000	0.0683788
329.0000	0.0692139
328.5000	0.0706197
328.0000	0.0715735
327.5000	0.0731996
327.0000	0.0743109
326.5000	0.0761662
326.0000	0.077444
325.5000	0.0795176
325.0000	0.0810571
324.5000	0.0834444
324.0000	0.0851097
323.5000	0.0877435
323.0000	0.0896425
322.5000	0.0927987
322.0000	0.0949812
321.5000	0.0984854
321.0000	0.10094
320.5000	0.104853
320.0000	0.107606
319.5000	0.112067
319.0000	0.115163
318.5000	0.120186
318.0000	0.123682
317.5000	0.129269
317.0000	0.133242
316.5000	0.139383
316.0000	0.143784
315.5000	0.150669
315.0000	0.155467
314.5000	0.163005
314.0000	0.168358
313.5000	0.176835
313.0000	0.182741
312.5000	0.192087
312.0000	0.19862
311.5000	0.208927
311.0000	0.21617
310.5000	0.22745
310.0000	0.235392
309.5000	0.247837
309.0000	0.256543
308.5000	0.270267
308.0000	0.279843
307.5000	0.294811
307.0000	0.305227
306.5000	0.321551
306.0000	0.332964
305.5000	0.350821
305.0000	0.363227
304.5000	0.382569
304.0000	0.396109
303.5000	0.417141
303.0000	0.431694
302.5000	0.454368
302.0000	0.470103
301.5000	0.494633
301.0000	0.511519
300.5000	0.53797
300.0000	0.556205

##### Extended Information
[コメント情報]
試料名
コメント
測定者
所属
会社	関西大学　化学生命工学部

[データ情報]
作成日時	2014/02/14 16:25

データタイプ	等間隔データ
横軸	Wavelength [nm]
縦軸	Abs
スタート	700 nm
エンド	300 nm
データ間隔	0.5 nm
データ数	801     

[測定情報]
装置名	V-670
機種名	V-670
シリアル番号	B118261154

付属品名	USE-753
付属品シリアルNo.	B118261154
  セル長	0.1 mm

測定日時	2014/02/14 16:25

測光モード	Abs
測定範囲	700 - 300 nm
データ取込間隔	0.5 nm
UV/Vis バンド幅	1.0 nm
NIR バンド幅	8.0 nm
レスポンス	Medium
走査速度	400 nm/min
光源切換	340 nm
回折格子切換	850 nm
光源	D2/WI
フィルタ切換	ステップ
補正	ベースライン

