TITLE	
DATA TYPE	ULTRAVIOLET SPECTRUM
ORIGIN	JASCO
OWNER	
DATE	14/06/03
TIME	22:01:21
SPECTROMETER/DATA SYSTEM	
LOCALE	1041
RESOLUTION	
DELTAX	-0.5
XUNITS	NANOMETERS
YUNITS	ABSORBANCE
FIRSTX	  700.0000
LASTX	  300.0000
NPOINTS	     801
FIRSTY	     0.01090
MAXY	     1.06544
MINY	     0.01090
XYDATA
700.0000	0.0108972
699.5000	0.0109287
699.0000	0.0109351
698.5000	0.0109268
698.0000	0.0109676
697.5000	0.0109724
697.0000	0.0109744
696.5000	0.0109625
696.0000	0.0109567
695.5000	0.010966
695.0000	0.0109609
694.5000	0.0109486
694.0000	0.010962
693.5000	0.0109633
693.0000	0.0109689
692.5000	0.0109771
692.0000	0.0109898
691.5000	0.010977
691.0000	0.0109854
690.5000	0.010985
690.0000	0.0110046
689.5000	0.0110176
689.0000	0.0110225
688.5000	0.011017
688.0000	0.0110162
687.5000	0.0110051
687.0000	0.0109935
686.5000	0.0109895
686.0000	0.0110039
685.5000	0.0110097
685.0000	0.0109892
684.5000	0.010983
684.0000	0.0109907
683.5000	0.0109926
683.0000	0.0109791
682.5000	0.0109728
682.0000	0.0110004
681.5000	0.0109787
681.0000	0.0109714
680.5000	0.0109639
680.0000	0.010979
679.5000	0.0109477
679.0000	0.0109617
678.5000	0.0109797
678.0000	0.0109758
677.5000	0.0109784
677.0000	0.0109932
676.5000	0.0109914
676.0000	0.0109991
675.5000	0.0109935
675.0000	0.0110025
674.5000	0.011021
674.0000	0.0110307
673.5000	0.0110375
673.0000	0.011045
672.5000	0.0110357
672.0000	0.0110668
671.5000	0.0110608
671.0000	0.0110771
670.5000	0.0110402
670.0000	0.0110533
669.5000	0.0110664
669.0000	0.0110643
668.5000	0.0110633
668.0000	0.0110658
667.5000	0.0110793
667.0000	0.0110726
666.5000	0.0111069
666.0000	0.0111134
665.5000	0.0111031
665.0000	0.0111202
664.5000	0.0111455
664.0000	0.0111481
663.5000	0.011193
663.0000	0.0112061
662.5000	0.0112349
662.0000	0.0112666
661.5000	0.0113102
661.0000	0.0113266
660.5000	0.0113706
660.0000	0.0113701
659.5000	0.0114258
659.0000	0.0114711
658.5000	0.0115459
658.0000	0.0115754
657.5000	0.011628
657.0000	0.0116511
656.5000	0.0117066
656.0000	0.0117418
655.5000	0.0118023
655.0000	0.0118221
654.5000	0.0118842
654.0000	0.0119229
653.5000	0.0119745
653.0000	0.0120081
652.5000	0.0120368
652.0000	0.0120739
651.5000	0.0121163
651.0000	0.0121683
650.5000	0.0122215
650.0000	0.0122784
649.5000	0.0123461
649.0000	0.0123926
648.5000	0.0124843
648.0000	0.0125276
647.5000	0.012613
647.0000	0.0126663
646.5000	0.0127592
646.0000	0.0128019
645.5000	0.0128836
645.0000	0.0129354
644.5000	0.013036
644.0000	0.0130857
643.5000	0.0131617
643.0000	0.0132249
642.5000	0.0133054
642.0000	0.0133605
641.5000	0.0134627
641.0000	0.0135259
640.5000	0.0136253
640.0000	0.0136761
639.5000	0.0137999
639.0000	0.0138575
638.5000	0.0139783
638.0000	0.014037
637.5000	0.0141412
637.0000	0.0142227
636.5000	0.0143395
636.0000	0.014422
635.5000	0.0145405
635.0000	0.0146067
634.5000	0.0147131
634.0000	0.0148016
633.5000	0.0149212
633.0000	0.0150057
632.5000	0.0151531
632.0000	0.0152277
631.5000	0.0153638
631.0000	0.0154637
630.5000	0.0155835
630.0000	0.015672
629.5000	0.0158125
629.0000	0.0159152
628.5000	0.0160904
628.0000	0.016201
627.5000	0.0163348
627.0000	0.0164519
626.5000	0.0166054
626.0000	0.0166944
625.5000	0.0168277
625.0000	0.0169364
624.5000	0.0171173
624.0000	0.0172366
623.5000	0.0174108
623.0000	0.0175212
622.5000	0.0176801
622.0000	0.0177969
621.5000	0.0179518
621.0000	0.0180645
620.5000	0.0182165
620.0000	0.0183557
619.5000	0.0185445
619.0000	0.0186873
618.5000	0.0188705
618.0000	0.0190033
617.5000	0.0191895
617.0000	0.0192986
616.5000	0.0195085
616.0000	0.0196505
615.5000	0.0198525
615.0000	0.020004
614.5000	0.0202471
614.0000	0.0204041
613.5000	0.0206244
613.0000	0.0207545
612.5000	0.0209664
612.0000	0.0211307
611.5000	0.0213505
611.0000	0.0215179
610.5000	0.0217791
610.0000	0.0219319
609.5000	0.0221477
609.0000	0.0223263
608.5000	0.0225715
608.0000	0.0227321
607.5000	0.0229907
607.0000	0.0231511
606.5000	0.0234273
606.0000	0.0236211
605.5000	0.0238697
605.0000	0.024048
604.5000	0.0243376
604.0000	0.0245134
603.5000	0.0248065
603.0000	0.0250077
602.5000	0.0252788
602.0000	0.0254654
601.5000	0.0257588
601.0000	0.0259586
600.5000	0.0262724
600.0000	0.0265605
599.5000	0.026845
599.0000	0.0270513
598.5000	0.0273465
598.0000	0.0275773
597.5000	0.0278877
597.0000	0.0281156
596.5000	0.0284364
596.0000	0.0286725
595.5000	0.0289992
595.0000	0.0292191
594.5000	0.0295705
594.0000	0.0298013
593.5000	0.0301563
593.0000	0.0303948
592.5000	0.0307559
592.0000	0.0310168
591.5000	0.0313785
591.0000	0.0316214
590.5000	0.0320044
590.0000	0.0322654
589.5000	0.0326385
589.0000	0.032888
588.5000	0.0332826
588.0000	0.0335461
587.5000	0.033952
587.0000	0.0342419
586.5000	0.0346492
586.0000	0.0349409
585.5000	0.0353754
585.0000	0.0356475
584.5000	0.0360713
584.0000	0.0363802
583.5000	0.0368266
583.0000	0.0371494
582.5000	0.0376399
582.0000	0.0379544
581.5000	0.0384561
581.0000	0.0387866
580.5000	0.039304
580.0000	0.039648
579.5000	0.0401966
579.0000	0.0405507
578.5000	0.0411167
578.0000	0.0414876
577.5000	0.0420575
577.0000	0.0424383
576.5000	0.0430215
576.0000	0.0434147
575.5000	0.0440085
575.0000	0.044411
574.5000	0.0450053
574.0000	0.0454096
573.5000	0.04604
573.0000	0.0464624
572.5000	0.04712
572.0000	0.0475495
571.5000	0.0482158
571.0000	0.0486558
570.5000	0.0493402
570.0000	0.049809
569.5000	0.0505363
569.0000	0.0510148
568.5000	0.0517417
568.0000	0.0522481
567.5000	0.0529964
567.0000	0.05351
566.5000	0.0542696
566.0000	0.0547725
565.5000	0.0555532
565.0000	0.0560893
564.5000	0.0569076
564.0000	0.0574297
563.5000	0.0582405
563.0000	0.0587707
562.5000	0.0596166
562.0000	0.0601464
561.5000	0.060999
561.0000	0.0615736
560.5000	0.0624462
560.0000	0.0630089
559.5000	0.0638636
559.0000	0.0644641
558.5000	0.0653429
558.0000	0.0659451
557.5000	0.0668701
557.0000	0.0674651
556.5000	0.0684006
556.0000	0.0690027
555.5000	0.0699399
555.0000	0.0705749
554.5000	0.0715089
554.0000	0.0721276
553.5000	0.0730895
553.0000	0.0737162
552.5000	0.074662
552.0000	0.0752994
551.5000	0.0762193
551.0000	0.0768319
550.5000	0.077754
550.0000	0.0783568
549.5000	0.0792793
549.0000	0.0798787
548.5000	0.0807726
548.0000	0.0813539
547.5000	0.0822244
547.0000	0.0827794
546.5000	0.083631
546.0000	0.0841546
545.5000	0.0849571
545.0000	0.0854666
544.5000	0.0862626
544.0000	0.0867586
543.5000	0.0874755
543.0000	0.0879338
542.5000	0.088605
542.0000	0.0890326
541.5000	0.0896685
541.0000	0.0900676
540.5000	0.0906589
540.0000	0.0910154
539.5000	0.091547
539.0000	0.0918682
538.5000	0.0922798
538.0000	0.0925412
537.5000	0.0929156
537.0000	0.0931538
536.5000	0.0934547
536.0000	0.0936227
535.5000	0.0938563
535.0000	0.0939712
534.5000	0.0941448
534.0000	0.0942339
533.5000	0.0943061
533.0000	0.0943566
532.5000	0.0943949
532.0000	0.0944246
531.5000	0.0943847
531.0000	0.0943493
530.5000	0.0942362
530.0000	0.0941457
529.5000	0.0939815
529.0000	0.0938649
528.5000	0.0936278
528.0000	0.0934633
527.5000	0.093152
527.0000	0.0929124
526.5000	0.0925278
526.0000	0.0922733
525.5000	0.091851
525.0000	0.0915372
524.5000	0.0910525
524.0000	0.090715
523.5000	0.0901888
523.0000	0.0898205
522.5000	0.0892217
522.0000	0.088828
521.5000	0.0881963
521.0000	0.0878041
520.5000	0.0871648
520.0000	0.0867888
519.5000	0.0861162
519.0000	0.0856534
518.5000	0.0849362
518.0000	0.0844458
517.5000	0.083717
517.0000	0.0832293
516.5000	0.0824695
516.0000	0.0819727
515.5000	0.0812196
515.0000	0.0807258
514.5000	0.0800255
514.0000	0.0795162
513.5000	0.0787681
513.0000	0.0782479
512.5000	0.0775064
512.0000	0.0770027
511.5000	0.0762433
511.0000	0.0757373
510.5000	0.0749879
510.0000	0.0745007
509.5000	0.0737459
509.0000	0.0732649
508.5000	0.0725273
508.0000	0.0720243
507.5000	0.0712746
507.0000	0.0707809
506.5000	0.0700758
506.0000	0.0695847
505.5000	0.0688742
505.0000	0.0683949
504.5000	0.0676925
504.0000	0.0672321
503.5000	0.0665483
503.0000	0.0660818
502.5000	0.0653923
502.0000	0.0649234
501.5000	0.0642859
501.0000	0.0638377
500.5000	0.0631607
500.0000	0.0627541
499.5000	0.0620999
499.0000	0.0616655
498.5000	0.0610449
498.0000	0.060624
497.5000	0.0600079
497.0000	0.0596002
496.5000	0.0590063
496.0000	0.0586048
495.5000	0.0580193
495.0000	0.0576149
494.5000	0.0570384
494.0000	0.0566722
493.5000	0.0560934
493.0000	0.0557499
492.5000	0.0551942
492.0000	0.0548307
491.5000	0.0543053
491.0000	0.0539794
490.5000	0.0534571
490.0000	0.0531106
489.5000	0.0526447
489.0000	0.0523301
488.5000	0.0518588
488.0000	0.0515627
487.5000	0.051106
487.0000	0.0508152
486.5000	0.0503825
486.0000	0.0501326
485.5000	0.0497296
485.0000	0.0494771
484.5000	0.0490982
484.0000	0.0488726
483.5000	0.0484938
483.0000	0.0482582
482.5000	0.047911
482.0000	0.0477128
481.5000	0.0473699
481.0000	0.0471802
480.5000	0.0468814
480.0000	0.0466986
479.5000	0.046409
479.0000	0.0462502
478.5000	0.0459981
478.0000	0.0458349
477.5000	0.0456379
477.0000	0.0455108
476.5000	0.0453684
476.0000	0.0452596
475.5000	0.0451495
475.0000	0.0450794
474.5000	0.0450105
474.0000	0.0449828
473.5000	0.0449727
473.0000	0.0449973
472.5000	0.0450352
472.0000	0.0450866
471.5000	0.0452283
471.0000	0.045317
470.5000	0.0455278
470.0000	0.0456951
469.5000	0.0460342
469.0000	0.046287
468.5000	0.0467533
468.0000	0.0470947
467.5000	0.0476895
467.0000	0.0481601
466.5000	0.0489221
466.0000	0.0494853
465.5000	0.0504618
465.0000	0.0511886
464.5000	0.0524117
464.0000	0.0533056
463.5000	0.0547575
463.0000	0.0558231
462.5000	0.0575695
462.0000	0.0588271
461.5000	0.060915
461.0000	0.0623955
460.5000	0.0648005
460.0000	0.0665308
459.5000	0.0693174
459.0000	0.0712886
458.5000	0.0743698
458.0000	0.0765094
457.5000	0.0798686
457.0000	0.0821841
456.5000	0.0857231
456.0000	0.0880935
455.5000	0.091697
455.0000	0.094057
454.5000	0.0975122
454.0000	0.099746
453.5000	0.10291
453.0000	0.104877
452.5000	0.107533
452.0000	0.109131
451.5000	0.111234
451.0000	0.112378
450.5000	0.113768
450.0000	0.114439
449.5000	0.115116
449.0000	0.115332
448.5000	0.115313
448.0000	0.115091
447.5000	0.114511
447.0000	0.113927
446.5000	0.112874
446.0000	0.112012
445.5000	0.110542
445.0000	0.109458
444.5000	0.107749
444.0000	0.106514
443.5000	0.10464
443.0000	0.103326
442.5000	0.101356
442.0000	0.100012
441.5000	0.0980167
441.0000	0.096664
440.5000	0.0946954
440.0000	0.0934266
439.5000	0.0916004
439.0000	0.0904465
438.5000	0.0888385
438.0000	0.0878088
437.5000	0.0864676
437.0000	0.0856544
436.5000	0.0846196
436.0000	0.0840612
435.5000	0.0834193
435.0000	0.0831271
434.5000	0.0828745
434.0000	0.0828722
433.5000	0.083045
433.0000	0.0833194
432.5000	0.0839308
432.0000	0.0844806
431.5000	0.0854827
431.0000	0.0863081
430.5000	0.087642
430.0000	0.0886311
429.5000	0.090209
429.0000	0.0913358
428.5000	0.0930406
428.0000	0.0942176
427.5000	0.0959418
427.0000	0.0971113
426.5000	0.0987458
426.0000	0.0997719
425.5000	0.101183
425.0000	0.102022
424.5000	0.103088
424.0000	0.103688
423.5000	0.104392
423.0000	0.104699
422.5000	0.104975
422.0000	0.104973
421.5000	0.10479
421.0000	0.10453
420.5000	0.103894
420.0000	0.103293
419.5000	0.102229
419.0000	0.101507
418.5000	0.100176
418.0000	0.0991879
417.5000	0.0976154
417.0000	0.0965405
416.5000	0.0948641
416.0000	0.0937122
415.5000	0.0918974
415.0000	0.0906908
414.5000	0.0888721
414.0000	0.0876553
413.5000	0.0859855
413.0000	0.084909
412.5000	0.0833052
412.0000	0.0823246
411.5000	0.0809232
411.0000	0.0799953
410.5000	0.078801
410.0000	0.0781068
409.5000	0.0771683
409.0000	0.0766222
408.5000	0.075943
408.0000	0.0755595
407.5000	0.0751143
407.0000	0.0748577
406.5000	0.0746334
406.0000	0.0745541
405.5000	0.0745076
405.0000	0.0745449
404.5000	0.0746992
404.0000	0.0748055
403.5000	0.0749724
403.0000	0.0750993
402.5000	0.0753535
402.0000	0.0754681
401.5000	0.0757334
401.0000	0.0758632
400.5000	0.0760334
400.0000	0.0761509
399.5000	0.0761951
399.0000	0.0762226
398.5000	0.0762222
398.0000	0.0761692
397.5000	0.0760767
397.0000	0.075962
396.5000	0.0757475
396.0000	0.0755466
395.5000	0.0752173
395.0000	0.0749485
394.5000	0.0745746
394.0000	0.074283
393.5000	0.0738946
393.0000	0.0736088
392.5000	0.0731192
392.0000	0.0727978
391.5000	0.0723898
391.0000	0.0720833
390.5000	0.0717235
390.0000	0.0715178
389.5000	0.0712396
389.0000	0.0711481
388.5000	0.0710073
388.0000	0.070884
387.5000	0.0708232
387.0000	0.0708263
386.5000	0.070932
386.0000	0.0710808
385.5000	0.0713103
385.0000	0.0714606
384.5000	0.0717998
384.0000	0.0720649
383.5000	0.07254
383.0000	0.0729028
382.5000	0.0734188
382.0000	0.0737984
381.5000	0.0744998
381.0000	0.0750009
380.5000	0.0757437
380.0000	0.0762922
379.5000	0.0770529
379.0000	0.0776075
378.5000	0.0785166
378.0000	0.0791391
377.5000	0.0800197
377.0000	0.0806539
376.5000	0.0815723
376.0000	0.0822577
375.5000	0.083237
375.0000	0.0838922
374.5000	0.0848937
374.0000	0.0856171
373.5000	0.086676
373.0000	0.0873858
372.5000	0.0885328
372.0000	0.0892636
371.5000	0.090446
371.0000	0.0912942
370.5000	0.0925627
370.0000	0.0934628
369.5000	0.0948662
369.0000	0.09581
368.5000	0.097209
368.0000	0.0982509
367.5000	0.0997498
367.0000	0.100927
366.5000	0.10251
366.0000	0.103638
365.5000	0.105405
365.0000	0.106576
364.5000	0.108461
364.0000	0.109731
363.5000	0.11155
363.0000	0.112847
362.5000	0.114841
362.0000	0.116228
361.5000	0.118191
361.0000	0.119464
360.5000	0.121347
360.0000	0.122684
359.5000	0.124667
359.0000	0.125857
358.5000	0.127742
358.0000	0.128939
357.5000	0.130774
357.0000	0.132031
356.5000	0.133789
356.0000	0.134847
355.5000	0.13653
355.0000	0.137606
354.5000	0.139303
354.0000	0.140356
353.5000	0.141913
353.0000	0.142943
352.5000	0.144508
352.0000	0.145524
351.5000	0.147023
351.0000	0.147852
350.5000	0.149231
350.0000	0.150051
349.5000	0.151345
349.0000	0.152182
348.5000	0.153339
348.0000	0.154118
347.5000	0.155267
347.0000	0.156069
346.5000	0.157196
346.0000	0.157864
345.5000	0.158855
345.0000	0.159531
344.5000	0.160787
344.0000	0.161544
343.5000	0.162773
343.0000	0.163545
342.5000	0.164717
342.0000	0.16552
341.5000	0.166762
341.0000	0.16765
340.5000	0.168877
340.0000	0.170995
339.5000	0.172322
339.0000	0.173331
338.5000	0.174843
338.0000	0.175923
337.5000	0.177484
337.0000	0.178601
336.5000	0.180408
336.0000	0.181576
335.5000	0.183341
335.0000	0.184644
334.5000	0.186732
334.0000	0.188193
333.5000	0.190449
333.0000	0.192006
332.5000	0.194544
332.0000	0.196252
331.5000	0.198958
331.0000	0.200929
330.5000	0.20394
330.0000	0.20609
329.5000	0.20956
329.0000	0.212046
328.5000	0.215815
328.0000	0.218449
327.5000	0.222537
327.0000	0.225411
326.5000	0.230093
326.0000	0.233265
325.5000	0.238308
325.0000	0.241889
324.5000	0.247603
324.0000	0.251634
323.5000	0.257753
323.0000	0.262124
322.5000	0.268961
322.0000	0.273799
321.5000	0.28135
321.0000	0.286634
320.5000	0.295044
320.0000	0.300807
319.5000	0.309969
319.0000	0.316408
318.5000	0.326455
318.0000	0.333457
317.5000	0.344378
317.0000	0.352056
316.5000	0.364048
316.0000	0.372431
315.5000	0.385418
315.0000	0.394563
314.5000	0.408828
314.0000	0.418724
313.5000	0.43407
313.0000	0.444795
312.5000	0.461618
312.0000	0.473306
311.5000	0.491509
311.0000	0.504179
310.5000	0.523973
310.0000	0.537753
309.5000	0.559258
309.0000	0.574205
308.5000	0.597515
308.0000	0.61363
307.5000	0.638908
307.0000	0.656491
306.5000	0.683899
306.0000	0.702768
305.5000	0.732358
305.0000	0.752828
304.5000	0.784698
304.0000	0.806776
303.5000	0.841035
303.0000	0.864792
302.5000	0.901667
302.0000	0.927112
301.5000	0.966738
301.0000	0.994022
300.5000	1.03628
300.0000	1.06544

##### Extended Information
[コメント情報]
試料名
コメント
測定者
所属
会社	関西大学　化学生命工学部

[データ情報]
作成日時	2014/06/03 22:01

データタイプ	等間隔データ
横軸	Wavelength [nm]
縦軸	Abs
スタート	700 nm
エンド	300 nm
データ間隔	0.5 nm
データ数	801     

[測定情報]
装置名	V-670
機種名	V-670
シリアル番号	B118261154

付属品名	USE-753
付属品シリアルNo.	B118261154
  セル長	0.1 mm

測定日時	2014/06/03 22:01

測光モード	Abs
測定範囲	700 - 300 nm
データ取込間隔	0.5 nm
UV/Vis バンド幅	1.0 nm
NIR バンド幅	8.0 nm
レスポンス	Medium
走査速度	400 nm/min
光源切換	340 nm
回折格子切換	850 nm
光源	D2/WI
フィルタ切換	ステップ
補正	ベースライン

