TITLE	
DATA TYPE	ULTRAVIOLET SPECTRUM
ORIGIN	JASCO
OWNER	
DATE	14/05/15
TIME	18:08:53
SPECTROMETER/DATA SYSTEM	
LOCALE	1041
RESOLUTION	
DELTAX	-0.5
XUNITS	NANOMETERS
YUNITS	ABSORBANCE
FIRSTX	  700.0000
LASTX	  300.0000
NPOINTS	     801
FIRSTY	     0.00810
MAXY	     1.82256
MINY	     0.00810
XYDATA
700.0000	0.00809604
699.5000	0.00813132
699.0000	0.00815328
698.5000	0.00819329
698.0000	0.00821988
697.5000	0.00823927
697.0000	0.00824332
696.5000	0.00827462
696.0000	0.00830352
695.5000	0.00832724
695.0000	0.00833574
694.5000	0.00839078
694.0000	0.00842436
693.5000	0.00844144
693.0000	0.00845913
692.5000	0.00848876
692.0000	0.00849292
691.5000	0.00853621
691.0000	0.00854988
690.5000	0.00858768
690.0000	0.00859386
689.5000	0.00864414
689.0000	0.00867437
688.5000	0.00872584
688.0000	0.00873393
687.5000	0.00879133
687.0000	0.00882941
686.5000	0.00887385
686.0000	0.00889812
685.5000	0.00895742
685.0000	0.00897887
684.5000	0.00902418
684.0000	0.00902746
683.5000	0.00909788
683.0000	0.00912306
682.5000	0.00918882
682.0000	0.00923706
681.5000	0.00928202
681.0000	0.00931754
680.5000	0.00938693
680.0000	0.00941321
679.5000	0.00949507
679.0000	0.00953436
678.5000	0.00960207
678.0000	0.00964532
677.5000	0.00972271
677.0000	0.00976055
676.5000	0.00981564
676.0000	0.00984368
675.5000	0.009902
675.0000	0.00994841
674.5000	0.0100242
674.0000	0.0100727
673.5000	0.0101459
673.0000	0.0101995
672.5000	0.0102806
672.0000	0.0103437
671.5000	0.0104337
671.0000	0.0105013
670.5000	0.0105786
670.0000	0.0106427
669.5000	0.0107422
669.0000	0.010786
668.5000	0.0108609
668.0000	0.0109112
667.5000	0.0110011
667.0000	0.0110689
666.5000	0.0111588
666.0000	0.0112053
665.5000	0.0113004
665.0000	0.0113765
664.5000	0.0114701
664.0000	0.01153
663.5000	0.0116448
663.0000	0.0117071
662.5000	0.0118095
662.0000	0.0118671
661.5000	0.0119759
661.0000	0.0120463
660.5000	0.0121602
660.0000	0.0122385
659.5000	0.0123356
659.0000	0.0123979
658.5000	0.0125013
658.0000	0.0125903
657.5000	0.012723
657.0000	0.0128207
656.5000	0.0129425
656.0000	0.0130409
655.5000	0.01318
655.0000	0.013282
654.5000	0.013415
654.0000	0.0134929
653.5000	0.0136417
653.0000	0.0137457
652.5000	0.0139023
652.0000	0.0139934
651.5000	0.0141259
651.0000	0.0142354
650.5000	0.0143656
650.0000	0.014475
649.5000	0.0146239
649.0000	0.014732
648.5000	0.0149094
648.0000	0.0150296
647.5000	0.0151934
647.0000	0.0153155
646.5000	0.0154914
646.0000	0.0156133
645.5000	0.0157775
645.0000	0.0158979
644.5000	0.0160695
644.0000	0.0161884
643.5000	0.0163696
643.0000	0.0164809
642.5000	0.0166728
642.0000	0.0168076
641.5000	0.016976
641.0000	0.0171091
640.5000	0.0172783
640.0000	0.0174117
639.5000	0.0176034
639.0000	0.0177515
638.5000	0.0179804
638.0000	0.0181185
637.5000	0.0183607
637.0000	0.018516
636.5000	0.0187556
636.0000	0.0188944
635.5000	0.0191282
635.0000	0.0192923
634.5000	0.0195498
634.0000	0.0197408
633.5000	0.0199901
633.0000	0.0201654
632.5000	0.0204331
632.0000	0.0205857
631.5000	0.0208549
631.0000	0.0210209
630.5000	0.0213047
630.0000	0.0214622
629.5000	0.0217471
629.0000	0.0219155
628.5000	0.0222186
628.0000	0.0224068
627.5000	0.0226907
627.0000	0.0228935
626.5000	0.0231925
626.0000	0.0233721
625.5000	0.0237097
625.0000	0.0239106
624.5000	0.0242292
624.0000	0.024425
623.5000	0.0247665
623.0000	0.024982
622.5000	0.025321
622.0000	0.0255369
621.5000	0.0258703
621.0000	0.026091
620.5000	0.0264546
620.0000	0.0266849
619.5000	0.0270563
619.0000	0.0272838
618.5000	0.027653
618.0000	0.0279093
617.5000	0.0282964
617.0000	0.0285633
616.5000	0.0289733
616.0000	0.0292458
615.5000	0.029638
615.0000	0.0299219
614.5000	0.0303416
614.0000	0.0306338
613.5000	0.0310909
613.0000	0.0313742
612.5000	0.0318299
612.0000	0.0321225
611.5000	0.0325975
611.0000	0.0329105
610.5000	0.033384
610.0000	0.0337136
609.5000	0.0342204
609.0000	0.0345646
608.5000	0.0350978
608.0000	0.0354589
607.5000	0.0360234
607.0000	0.0364072
606.5000	0.0370285
606.0000	0.0374154
605.5000	0.0380608
605.0000	0.0384623
604.5000	0.0391084
604.0000	0.0395518
603.5000	0.0402258
603.0000	0.0406918
602.5000	0.0414252
602.0000	0.0419184
601.5000	0.0426545
601.0000	0.0431549
600.5000	0.0439366
600.0000	0.0446723
599.5000	0.0455044
599.0000	0.0460861
598.5000	0.0469668
598.0000	0.0475745
597.5000	0.048522
597.0000	0.0491551
596.5000	0.0501404
596.0000	0.0508274
595.5000	0.0518722
595.0000	0.0525866
594.5000	0.0537215
594.0000	0.0544757
593.5000	0.0556422
593.0000	0.0564466
592.5000	0.0576873
592.0000	0.0585369
591.5000	0.0598174
591.0000	0.060708
590.5000	0.0620808
590.0000	0.0629835
589.5000	0.0643791
589.0000	0.0653559
588.5000	0.0668208
588.0000	0.0678155
587.5000	0.0693412
587.0000	0.0703764
586.5000	0.0719766
586.0000	0.0730114
585.5000	0.0746092
585.0000	0.0757109
584.5000	0.0773667
584.0000	0.0784706
583.5000	0.0801733
583.0000	0.0813009
582.5000	0.0830268
582.0000	0.0841812
581.5000	0.0859473
581.0000	0.0871166
580.5000	0.0888872
580.0000	0.090052
579.5000	0.091856
579.0000	0.0930713
578.5000	0.0948803
578.0000	0.0960877
577.5000	0.097923
577.0000	0.0991401
576.5000	0.100967
576.0000	0.102188
575.5000	0.10405
575.0000	0.105281
574.5000	0.107151
574.0000	0.108382
573.5000	0.110288
573.0000	0.111552
572.5000	0.113445
572.0000	0.114725
571.5000	0.116654
571.0000	0.117935
570.5000	0.119892
570.0000	0.121228
569.5000	0.123229
569.0000	0.124574
568.5000	0.126614
568.0000	0.12799
567.5000	0.130079
567.0000	0.131463
566.5000	0.133595
566.0000	0.135039
565.5000	0.137221
565.0000	0.138704
564.5000	0.140964
564.0000	0.142497
563.5000	0.144789
563.0000	0.146357
562.5000	0.148752
562.0000	0.150362
561.5000	0.152822
561.0000	0.154483
560.5000	0.15704
560.0000	0.158779
559.5000	0.161402
559.0000	0.163192
558.5000	0.165895
558.0000	0.16774
557.5000	0.17055
557.0000	0.172469
556.5000	0.17534
556.0000	0.177295
555.5000	0.180286
555.0000	0.182311
554.5000	0.185392
554.0000	0.18745
553.5000	0.190593
553.0000	0.192712
552.5000	0.195909
552.0000	0.198064
551.5000	0.201348
551.0000	0.20355
550.5000	0.206889
550.0000	0.209123
549.5000	0.212485
549.0000	0.214739
548.5000	0.218134
548.0000	0.220423
547.5000	0.223864
547.0000	0.226171
546.5000	0.22965
546.0000	0.231975
545.5000	0.23544
545.0000	0.237737
544.5000	0.241179
544.0000	0.243482
543.5000	0.246913
543.0000	0.249182
542.5000	0.252556
542.0000	0.254782
541.5000	0.25808
541.0000	0.26023
540.5000	0.263423
540.0000	0.265498
539.5000	0.268567
539.0000	0.270581
538.5000	0.273503
538.0000	0.275419
537.5000	0.278187
537.0000	0.279983
536.5000	0.282575
536.0000	0.284214
535.5000	0.286579
535.0000	0.288063
534.5000	0.290222
534.0000	0.291559
533.5000	0.293436
533.0000	0.294606
532.5000	0.296196
532.0000	0.297175
531.5000	0.298487
531.0000	0.299269
530.5000	0.300263
530.0000	0.300807
529.5000	0.30148
529.0000	0.30184
528.5000	0.302211
528.0000	0.302342
527.5000	0.302409
527.0000	0.302337
526.5000	0.30206
526.0000	0.301783
525.5000	0.301209
525.0000	0.300708
524.5000	0.299862
524.0000	0.2992
523.5000	0.29806
523.0000	0.297227
522.5000	0.295824
522.0000	0.29479
521.5000	0.293139
521.0000	0.291961
520.5000	0.290078
520.0000	0.289358
519.5000	0.287266
519.0000	0.285803
518.5000	0.283526
518.0000	0.281956
517.5000	0.279513
517.0000	0.277831
516.5000	0.275261
516.0000	0.273525
515.5000	0.270843
515.0000	0.269018
514.5000	0.266243
514.0000	0.264364
513.5000	0.26148
513.0000	0.259556
512.5000	0.256632
512.0000	0.25468
511.5000	0.251708
511.0000	0.249711
510.5000	0.24671
510.0000	0.244705
509.5000	0.241667
509.0000	0.239652
508.5000	0.236587
508.0000	0.234553
507.5000	0.231506
507.0000	0.229485
506.5000	0.226458
506.0000	0.22443
505.5000	0.221388
505.0000	0.219414
504.5000	0.216413
504.0000	0.214435
503.5000	0.211479
503.0000	0.209532
502.5000	0.20662
502.0000	0.204711
501.5000	0.20186
501.0000	0.199959
500.5000	0.197165
500.0000	0.195296
499.5000	0.19256
499.0000	0.190753
498.5000	0.188073
498.0000	0.186294
497.5000	0.183648
497.0000	0.181899
496.5000	0.17933
496.0000	0.177621
495.5000	0.175067
495.0000	0.173401
494.5000	0.170909
494.0000	0.169259
493.5000	0.166815
493.0000	0.165189
492.5000	0.162761
492.0000	0.16116
491.5000	0.158806
491.0000	0.157242
490.5000	0.154918
490.0000	0.153354
489.5000	0.151064
489.0000	0.149558
488.5000	0.147298
488.0000	0.145839
487.5000	0.143679
487.0000	0.142236
486.5000	0.140121
486.0000	0.13873
485.5000	0.136646
485.0000	0.135296
484.5000	0.133291
484.0000	0.131965
483.5000	0.130017
483.0000	0.128737
482.5000	0.126823
482.0000	0.125588
481.5000	0.123687
481.0000	0.122477
480.5000	0.12067
480.0000	0.119484
479.5000	0.117763
479.0000	0.116628
478.5000	0.114937
478.0000	0.113822
477.5000	0.112209
477.0000	0.111161
476.5000	0.109634
476.0000	0.108638
475.5000	0.107182
475.0000	0.106227
474.5000	0.104863
474.0000	0.103973
473.5000	0.102667
473.0000	0.101812
472.5000	0.100611
472.0000	0.0998356
471.5000	0.0987395
471.0000	0.0980137
470.5000	0.0969738
470.0000	0.0963102
469.5000	0.0953786
469.0000	0.0947799
468.5000	0.0939621
468.0000	0.0934515
467.5000	0.092734
467.0000	0.0922869
466.5000	0.0916913
466.0000	0.0913364
465.5000	0.0908994
465.0000	0.0906515
464.5000	0.0903651
464.0000	0.0902408
463.5000	0.0901537
463.0000	0.0901635
462.5000	0.0902698
462.0000	0.0904114
461.5000	0.0907317
461.0000	0.091025
460.5000	0.0916226
460.0000	0.092112
459.5000	0.0929911
459.0000	0.0936304
458.5000	0.0947649
458.0000	0.0956083
457.5000	0.0970061
457.0000	0.0980194
456.5000	0.0996985
456.0000	0.100911
455.5000	0.102791
455.0000	0.104104
454.5000	0.106193
454.0000	0.107574
453.5000	0.109651
453.0000	0.111002
452.5000	0.113065
452.0000	0.114344
451.5000	0.116146
451.0000	0.117255
450.5000	0.118729
450.0000	0.11956
449.5000	0.120539
449.0000	0.121038
448.5000	0.121572
448.0000	0.121746
447.5000	0.121736
447.0000	0.121586
446.5000	0.121151
446.0000	0.120718
445.5000	0.119888
445.0000	0.119229
444.5000	0.118096
444.0000	0.117279
443.5000	0.115997
443.0000	0.115157
442.5000	0.113792
442.0000	0.112844
441.5000	0.111465
441.0000	0.110541
440.5000	0.109167
440.0000	0.108276
439.5000	0.107001
439.0000	0.106189
438.5000	0.105031
438.0000	0.104338
437.5000	0.103413
437.0000	0.102869
436.5000	0.102145
436.0000	0.101754
435.5000	0.101341
435.0000	0.101151
434.5000	0.101068
434.0000	0.101134
433.5000	0.101405
433.0000	0.101696
432.5000	0.102342
432.0000	0.102901
431.5000	0.103941
431.0000	0.104735
430.5000	0.106086
430.0000	0.107127
429.5000	0.108861
429.0000	0.110074
428.5000	0.112006
428.0000	0.113392
427.5000	0.115534
427.0000	0.117023
426.5000	0.119308
426.0000	0.120787
425.5000	0.122978
425.0000	0.124446
424.5000	0.126573
424.0000	0.127917
423.5000	0.129826
423.0000	0.130984
422.5000	0.132659
422.0000	0.133639
421.5000	0.134956
421.0000	0.135705
420.5000	0.136631
420.0000	0.13689
419.5000	0.137558
419.0000	0.137842
418.5000	0.138186
418.0000	0.138332
417.5000	0.138458
417.0000	0.138445
416.5000	0.138316
416.0000	0.138207
415.5000	0.137921
415.0000	0.137713
414.5000	0.137359
414.0000	0.137129
413.5000	0.136806
413.0000	0.136618
412.5000	0.136423
412.0000	0.136291
411.5000	0.136128
411.0000	0.136079
410.5000	0.136088
410.0000	0.136122
409.5000	0.136315
409.0000	0.136557
408.5000	0.136938
408.0000	0.137301
407.5000	0.137985
407.0000	0.138503
406.5000	0.139369
406.0000	0.140047
405.5000	0.141189
405.0000	0.142024
404.5000	0.143345
404.0000	0.144327
403.5000	0.145877
403.0000	0.146911
402.5000	0.148536
402.0000	0.149705
401.5000	0.151495
401.0000	0.152693
400.5000	0.154496
400.0000	0.155733
399.5000	0.157542
399.0000	0.158762
398.5000	0.160621
398.0000	0.161829
397.5000	0.16359
397.0000	0.164742
396.5000	0.166478
396.0000	0.167574
395.5000	0.169214
395.0000	0.170241
394.5000	0.171778
394.0000	0.172833
393.5000	0.174355
393.0000	0.175349
392.5000	0.176834
392.0000	0.177883
391.5000	0.179441
391.0000	0.180558
390.5000	0.182217
390.0000	0.183359
389.5000	0.185216
389.0000	0.186497
388.5000	0.188578
388.0000	0.189982
387.5000	0.192244
387.0000	0.193833
386.5000	0.196275
386.0000	0.197955
385.5000	0.200629
385.0000	0.202515
384.5000	0.205443
384.0000	0.207519
383.5000	0.210734
383.0000	0.212909
382.5000	0.2163
382.0000	0.218603
381.5000	0.222242
381.0000	0.224762
380.5000	0.228663
380.0000	0.231358
379.5000	0.235426
379.0000	0.238172
378.5000	0.242415
378.0000	0.245291
377.5000	0.249654
377.0000	0.252604
376.5000	0.257099
376.0000	0.260105
375.5000	0.264807
375.0000	0.26795
374.5000	0.272706
374.0000	0.275982
373.5000	0.281031
373.0000	0.284444
372.5000	0.289791
372.0000	0.293432
371.5000	0.299067
371.0000	0.302973
370.5000	0.309129
370.0000	0.313742
369.5000	0.320584
369.0000	0.325285
368.5000	0.332621
368.0000	0.337683
367.5000	0.345752
367.0000	0.351372
366.5000	0.36027
366.0000	0.366535
365.5000	0.376342
365.0000	0.383122
364.5000	0.393916
364.0000	0.401364
363.5000	0.413045
363.0000	0.421285
362.5000	0.434302
362.0000	0.44329
361.5000	0.457439
361.0000	0.467281
360.5000	0.48275
360.0000	0.493475
359.5000	0.510293
359.0000	0.521959
358.5000	0.540407
358.0000	0.553122
357.5000	0.573229
357.0000	0.58714
356.5000	0.6088
356.0000	0.623811
355.5000	0.647342
355.0000	0.663551
354.5000	0.688887
354.0000	0.706428
353.5000	0.733569
353.0000	0.75233
352.5000	0.781398
352.0000	0.8013
351.5000	0.832034
351.0000	0.853086
350.5000	0.885344
350.0000	0.907349
349.5000	0.941106
349.0000	0.964084
348.5000	0.999092
348.0000	1.0227
347.5000	1.05844
347.0000	1.08256
346.5000	1.11904
346.0000	1.14343
345.5000	1.18011
345.0000	1.20464
344.5000	1.24109
344.0000	1.26542
343.5000	1.30155
343.0000	1.3253
342.5000	1.36032
342.0000	1.38308
341.5000	1.41702
341.0000	1.43905
340.5000	1.47112
340.0000	1.49034
339.5000	1.5204
339.0000	1.5398
338.5000	1.56759
338.0000	1.58516
337.5000	1.61047
337.0000	1.62684
336.5000	1.64987
336.0000	1.66429
335.5000	1.68474
335.0000	1.69761
334.5000	1.71592
334.0000	1.72707
333.5000	1.74285
333.0000	1.75236
332.5000	1.76556
332.0000	1.77343
331.5000	1.78454
331.0000	1.79119
330.5000	1.79955
330.0000	1.80466
329.5000	1.81089
329.0000	1.81453
328.5000	1.81841
328.0000	1.82022
327.5000	1.82226
327.0000	1.82256
326.5000	1.82227
326.0000	1.82144
325.5000	1.81903
325.0000	1.8165
324.5000	1.81226
324.0000	1.80854
323.5000	1.80213
323.0000	1.79767
322.5000	1.79048
322.0000	1.78538
321.5000	1.7767
321.0000	1.77061
320.5000	1.76115
320.0000	1.75462
319.5000	1.74473
319.0000	1.73805
318.5000	1.72787
318.0000	1.72097
317.5000	1.71106
317.0000	1.70451
316.5000	1.69461
316.0000	1.6882
315.5000	1.67899
315.0000	1.67279
314.5000	1.66421
314.0000	1.65886
313.5000	1.65136
313.0000	1.64661
312.5000	1.64023
312.0000	1.6364
311.5000	1.63133
311.0000	1.62844
310.5000	1.62493
310.0000	1.62339
309.5000	1.62158
309.0000	1.62105
308.5000	1.62147
308.0000	1.62248
307.5000	1.62515
307.0000	1.62771
306.5000	1.63306
306.0000	1.63757
305.5000	1.64581
305.0000	1.65233
304.5000	1.6634
304.0000	1.67195
303.5000	1.6865
303.0000	1.69741
302.5000	1.71555
302.0000	1.72891
301.5000	1.75079
301.0000	1.7667
300.5000	1.79249
300.0000	1.81109

##### Extended Information
[コメント情報]
試料名
コメント
測定者
所属
会社	関西大学　化学生命工学部

[データ情報]
作成日時	2014/05/15 18:08

データタイプ	等間隔データ
横軸	Wavelength [nm]
縦軸	Abs
スタート	700 nm
エンド	300 nm
データ間隔	0.5 nm
データ数	801     

[測定情報]
装置名	V-670
機種名	V-670
シリアル番号	B118261154

付属品名	USE-753
付属品シリアルNo.	B118261154
  セル長	0.1 mm

測定日時	2014/05/15 18:08

測光モード	Abs
測定範囲	700 - 300 nm
データ取込間隔	0.5 nm
UV/Vis バンド幅	1.0 nm
NIR バンド幅	8.0 nm
レスポンス	Medium
走査速度	400 nm/min
光源切換	340 nm
回折格子切換	850 nm
光源	D2/WI
フィルタ切換	ステップ
補正	ベースライン

