TITLE	
DATA TYPE	ULTRAVIOLET SPECTRUM
ORIGIN	JASCO
OWNER	
DATE	14/06/04
TIME	22:37:45
SPECTROMETER/DATA SYSTEM	
LOCALE	1041
RESOLUTION	
DELTAX	-0.5
XUNITS	NANOMETERS
YUNITS	ABSORBANCE
FIRSTX	  700.0000
LASTX	  300.0000
NPOINTS	     801
FIRSTY	     0.01126
MAXY	     0.61763
MINY	     0.01096
XYDATA
700.0000	0.0112611
699.5000	0.0112395
699.0000	0.0112411
698.5000	0.0112554
698.0000	0.0112627
697.5000	0.0112961
697.0000	0.0112982
696.5000	0.0112967
696.0000	0.0113002
695.5000	0.0113146
695.0000	0.0112988
694.5000	0.0112962
694.0000	0.0113097
693.5000	0.0113242
693.0000	0.011328
692.5000	0.0112915
692.0000	0.0112806
691.5000	0.0112912
691.0000	0.0112586
690.5000	0.0112452
690.0000	0.0112529
689.5000	0.0112471
689.0000	0.0112391
688.5000	0.0112135
688.0000	0.0112043
687.5000	0.0111967
687.0000	0.0111965
686.5000	0.01118
686.0000	0.0111975
685.5000	0.0111582
685.0000	0.0111389
684.5000	0.0111069
684.0000	0.0111089
683.5000	0.0111071
683.0000	0.0111001
682.5000	0.011093
682.0000	0.0110713
681.5000	0.0110178
681.0000	0.0110069
680.5000	0.0110171
680.0000	0.0110154
679.5000	0.0109905
679.0000	0.0110212
678.5000	0.0110171
678.0000	0.0110258
677.5000	0.0110313
677.0000	0.0110403
676.5000	0.0110632
676.0000	0.0110592
675.5000	0.0110812
675.0000	0.0110867
674.5000	0.011065
674.0000	0.0110656
673.5000	0.0110776
673.0000	0.0110692
672.5000	0.0110311
672.0000	0.0110432
671.5000	0.0110272
671.0000	0.011001
670.5000	0.0109717
670.0000	0.0109591
669.5000	0.0109708
669.0000	0.010983
668.5000	0.0109829
668.0000	0.0109875
667.5000	0.0110066
667.0000	0.0110012
666.5000	0.011027
666.0000	0.0110474
665.5000	0.0110676
665.0000	0.0110849
664.5000	0.0110952
664.0000	0.0111002
663.5000	0.0111297
663.0000	0.0111477
662.5000	0.0111638
662.0000	0.0112003
661.5000	0.0112076
661.0000	0.0111926
660.5000	0.0112328
660.0000	0.0112234
659.5000	0.0112299
659.0000	0.0112413
658.5000	0.01126
658.0000	0.011291
657.5000	0.0113252
657.0000	0.0113423
656.5000	0.0113323
656.0000	0.0113559
655.5000	0.0113817
655.0000	0.0114267
654.5000	0.0114337
654.0000	0.0114332
653.5000	0.011511
653.0000	0.0115447
652.5000	0.0115969
652.0000	0.0116158
651.5000	0.0116458
651.0000	0.0116837
650.5000	0.0117197
650.0000	0.0117446
649.5000	0.0118138
649.0000	0.0118494
648.5000	0.0118964
648.0000	0.0119569
647.5000	0.0120086
647.0000	0.0120344
646.5000	0.0120762
646.0000	0.0121074
645.5000	0.0121701
645.0000	0.0122007
644.5000	0.0122535
644.0000	0.0123031
643.5000	0.0123576
643.0000	0.0123852
642.5000	0.0124565
642.0000	0.0124704
641.5000	0.0125163
641.0000	0.0125584
640.5000	0.0126381
640.0000	0.0126743
639.5000	0.012736
639.0000	0.0127811
638.5000	0.0128444
638.0000	0.0128985
637.5000	0.0129437
637.0000	0.0129879
636.5000	0.0130423
636.0000	0.0130826
635.5000	0.0131653
635.0000	0.0132093
634.5000	0.0132617
634.0000	0.0133029
633.5000	0.0134011
633.0000	0.0134418
632.5000	0.0135338
632.0000	0.0135711
631.5000	0.0136503
631.0000	0.0137321
630.5000	0.013817
630.0000	0.0138543
629.5000	0.0139283
629.0000	0.0139933
628.5000	0.0140871
628.0000	0.0141446
627.5000	0.0142193
627.0000	0.0142796
626.5000	0.0143719
626.0000	0.0144308
625.5000	0.0145276
625.0000	0.0146062
624.5000	0.0147183
624.0000	0.0147948
623.5000	0.0148867
623.0000	0.0149609
622.5000	0.0150886
622.0000	0.0151519
621.5000	0.0152781
621.0000	0.0153668
620.5000	0.0154825
620.0000	0.0155656
619.5000	0.0156911
619.0000	0.0157995
618.5000	0.0159245
618.0000	0.0159913
617.5000	0.0161041
617.0000	0.0161988
616.5000	0.0163347
616.0000	0.0164232
615.5000	0.0165701
615.0000	0.0166477
614.5000	0.0167672
614.0000	0.0168601
613.5000	0.0169968
613.0000	0.0170874
612.5000	0.0172053
612.0000	0.0172891
611.5000	0.0174147
611.0000	0.0175274
610.5000	0.0176939
610.0000	0.0177963
609.5000	0.0179579
609.0000	0.0180624
608.5000	0.0182496
608.0000	0.0183517
607.5000	0.0185226
607.0000	0.01863
606.5000	0.0188095
606.0000	0.0189243
605.5000	0.019118
605.0000	0.0192485
604.5000	0.0194567
604.0000	0.0195772
603.5000	0.0197745
603.0000	0.0199055
602.5000	0.0200931
602.0000	0.0202231
601.5000	0.0204519
601.0000	0.0206037
600.5000	0.0208195
600.0000	0.0205609
599.5000	0.020809
599.0000	0.0209826
598.5000	0.0212284
598.0000	0.0213955
597.5000	0.0216443
597.0000	0.0218202
596.5000	0.0220815
596.0000	0.0222571
595.5000	0.0225536
595.0000	0.0227374
594.5000	0.0230058
594.0000	0.02321
593.5000	0.0235194
593.0000	0.0237477
592.5000	0.0240509
592.0000	0.0242471
591.5000	0.0245547
591.0000	0.024773
590.5000	0.0251287
590.0000	0.0253594
589.5000	0.0256755
589.0000	0.0259025
588.5000	0.0262683
588.0000	0.0265441
587.5000	0.0269017
587.0000	0.0271683
586.5000	0.0275111
586.0000	0.0277573
585.5000	0.0281927
585.0000	0.0284826
584.5000	0.0289385
584.0000	0.0292049
583.5000	0.0296481
583.0000	0.0299683
582.5000	0.0304279
582.0000	0.0307327
581.5000	0.0311826
581.0000	0.0315283
580.5000	0.0320371
580.0000	0.0324218
579.5000	0.0329676
579.0000	0.0333145
578.5000	0.0338614
578.0000	0.034211
577.5000	0.0348232
577.0000	0.0352417
576.5000	0.0358518
576.0000	0.0362558
575.5000	0.0369088
575.0000	0.0373401
574.5000	0.0380049
574.0000	0.038458
573.5000	0.0391354
573.0000	0.0396033
572.5000	0.0403456
572.0000	0.0408463
571.5000	0.0415934
571.0000	0.0421077
570.5000	0.0428621
570.0000	0.0434004
569.5000	0.0442243
569.0000	0.0447656
568.5000	0.0455992
568.0000	0.0461529
567.5000	0.0470205
567.0000	0.0475853
566.5000	0.0484528
566.0000	0.0490277
565.5000	0.0499332
565.0000	0.050558
564.5000	0.0514797
564.0000	0.0520871
563.5000	0.0530129
563.0000	0.053671
562.5000	0.0546336
562.0000	0.0552822
561.5000	0.0562553
561.0000	0.0569261
560.5000	0.0579282
560.0000	0.0585908
559.5000	0.0596112
559.0000	0.0602661
558.5000	0.0612578
558.0000	0.0619203
557.5000	0.0629184
557.0000	0.0636129
556.5000	0.0645849
556.0000	0.0652416
555.5000	0.066232
555.0000	0.0668805
554.5000	0.0678093
554.0000	0.0684425
553.5000	0.0693613
553.0000	0.0699989
552.5000	0.0709272
552.0000	0.0715211
551.5000	0.0724022
551.0000	0.0729901
550.5000	0.0738442
550.0000	0.0744117
549.5000	0.0752221
549.0000	0.0757516
548.5000	0.0765562
548.0000	0.0770724
547.5000	0.0778128
547.0000	0.0782992
546.5000	0.0789867
546.0000	0.07943
545.5000	0.0800704
545.0000	0.0804837
544.5000	0.0810879
544.0000	0.0814284
543.5000	0.0819468
543.0000	0.0822828
542.5000	0.0827576
542.0000	0.0830546
541.5000	0.0834926
541.0000	0.0837573
540.5000	0.084102
540.0000	0.0843143
539.5000	0.0846177
539.0000	0.084827
538.5000	0.0850669
538.0000	0.0852146
537.5000	0.0854394
537.0000	0.0855673
536.5000	0.0857241
536.0000	0.0857948
535.5000	0.0858821
535.0000	0.0859315
534.5000	0.0859857
534.0000	0.0860073
533.5000	0.0859838
533.0000	0.0859512
532.5000	0.0858726
532.0000	0.085824
531.5000	0.0856873
531.0000	0.0855826
530.5000	0.085388
530.0000	0.0852537
529.5000	0.0850115
529.0000	0.0847933
528.5000	0.0844701
528.0000	0.0842331
527.5000	0.0838694
527.0000	0.0836011
526.5000	0.0831893
526.0000	0.0828882
525.5000	0.0823916
525.0000	0.0820473
524.5000	0.0815199
524.0000	0.081163
523.5000	0.0805723
523.0000	0.0801704
522.5000	0.0795882
522.0000	0.0791749
521.5000	0.078511
521.0000	0.0780569
520.5000	0.0773933
520.0000	0.0766145
519.5000	0.0759231
519.0000	0.0754269
518.5000	0.0747107
518.0000	0.0742371
517.5000	0.0734996
517.0000	0.0730222
516.5000	0.0722952
516.0000	0.0718001
515.5000	0.0710571
515.0000	0.0705373
514.5000	0.0697521
514.0000	0.0692586
513.5000	0.0684963
513.0000	0.0679551
512.5000	0.0671994
512.0000	0.0666775
511.5000	0.0659047
511.0000	0.0654189
510.5000	0.0646761
510.0000	0.0641712
509.5000	0.0634059
509.0000	0.0629172
508.5000	0.062213
508.0000	0.0617476
507.5000	0.061036
507.0000	0.0605738
506.5000	0.0598818
506.0000	0.0594187
505.5000	0.0587683
505.0000	0.0583235
504.5000	0.0576536
504.0000	0.057222
503.5000	0.056588
503.0000	0.0561647
502.5000	0.055557
502.0000	0.0551255
501.5000	0.0545264
501.0000	0.054103
500.5000	0.0535461
500.0000	0.0531615
499.5000	0.0525714
499.0000	0.0521679
498.5000	0.0516136
498.0000	0.0512495
497.5000	0.0506589
497.0000	0.0502876
496.5000	0.0497532
496.0000	0.0493883
495.5000	0.0488421
495.0000	0.0484923
494.5000	0.0479644
494.0000	0.0475893
493.5000	0.0470597
493.0000	0.0467096
492.5000	0.046209
492.0000	0.0458668
491.5000	0.0453694
491.0000	0.045057
490.5000	0.0445663
490.0000	0.0442599
489.5000	0.0437782
489.0000	0.0434423
488.5000	0.0429731
488.0000	0.0426798
487.5000	0.0422529
487.0000	0.0419598
486.5000	0.041495
486.0000	0.0411985
485.5000	0.0407586
485.0000	0.0404647
484.5000	0.0400225
484.0000	0.0397556
483.5000	0.0393378
483.0000	0.0390808
482.5000	0.0386867
482.0000	0.0384502
481.5000	0.0380722
481.0000	0.0378432
480.5000	0.0375064
480.0000	0.037307
479.5000	0.0370128
479.0000	0.0368379
478.5000	0.0365841
478.0000	0.0364285
477.5000	0.0362206
477.0000	0.0361283
476.5000	0.0359667
476.0000	0.0358915
475.5000	0.0358056
475.0000	0.035767
474.5000	0.0357603
474.0000	0.0357757
473.5000	0.0358209
473.0000	0.0359032
472.5000	0.0360506
472.0000	0.036204
471.5000	0.0364567
471.0000	0.0366721
470.5000	0.0370861
470.0000	0.0374274
469.5000	0.0379887
469.0000	0.0384141
468.5000	0.0391513
468.0000	0.0397158
467.5000	0.0406726
467.0000	0.0413946
466.5000	0.0426068
466.0000	0.0435104
465.5000	0.0450344
465.0000	0.0461606
464.5000	0.0480408
464.0000	0.0493557
463.5000	0.0515704
463.0000	0.0531929
462.5000	0.0558684
462.0000	0.0577756
461.5000	0.0608506
461.0000	0.06309
460.5000	0.0666616
460.0000	0.0691945
459.5000	0.07321
459.0000	0.0760303
458.5000	0.0804317
458.0000	0.083484
457.5000	0.0882244
457.0000	0.0914225
456.5000	0.0962871
456.0000	0.0995281
455.5000	0.104341
455.0000	0.107516
454.5000	0.112051
454.0000	0.114925
453.5000	0.118947
453.0000	0.12142
452.5000	0.124704
452.0000	0.126594
451.5000	0.128961
451.0000	0.130233
450.5000	0.131675
450.0000	0.132283
449.5000	0.132717
449.0000	0.132723
448.5000	0.132297
448.0000	0.131724
447.5000	0.130531
447.0000	0.129507
446.5000	0.127724
446.0000	0.126382
445.5000	0.124143
445.0000	0.122554
444.5000	0.120013
444.0000	0.118234
443.5000	0.115506
443.0000	0.113661
442.5000	0.110896
442.0000	0.109006
441.5000	0.106248
441.0000	0.104401
440.5000	0.101777
440.0000	0.10007
439.5000	0.0976407
439.0000	0.0961376
438.5000	0.0940602
438.0000	0.0927891
437.5000	0.0911607
437.0000	0.0901931
436.5000	0.0890177
436.0000	0.0883742
435.5000	0.0877464
435.0000	0.0875104
434.5000	0.0875011
434.0000	0.0876587
433.5000	0.0881845
433.0000	0.0887323
432.5000	0.089829
432.0000	0.0907423
431.5000	0.0923419
431.0000	0.0935287
430.5000	0.0955599
430.0000	0.0970002
429.5000	0.0993014
429.0000	0.100883
428.5000	0.103272
428.0000	0.104867
427.5000	0.10722
427.0000	0.108751
426.5000	0.110885
426.0000	0.112208
425.5000	0.11399
425.0000	0.114977
424.5000	0.11626
424.0000	0.116905
423.5000	0.117608
423.0000	0.117878
422.5000	0.117964
422.0000	0.117826
421.5000	0.117314
421.0000	0.116761
420.5000	0.115654
420.0000	0.114868
419.5000	0.113296
419.0000	0.112087
418.5000	0.110099
418.0000	0.108662
417.5000	0.106378
417.0000	0.104801
416.5000	0.102405
416.0000	0.100769
415.5000	0.0982716
415.0000	0.0965883
414.5000	0.0940859
414.0000	0.0924991
413.5000	0.0901988
413.0000	0.0887403
412.5000	0.0866608
412.0000	0.0853223
411.5000	0.0835168
411.0000	0.0824158
410.5000	0.0809126
410.0000	0.0800219
409.5000	0.0788298
409.0000	0.0781333
408.5000	0.0773444
408.0000	0.0769263
407.5000	0.0763603
407.0000	0.0760923
406.5000	0.0758507
406.0000	0.0758067
405.5000	0.0758281
405.0000	0.0758956
404.5000	0.0760509
404.0000	0.0762089
403.5000	0.0764732
403.0000	0.0766463
402.5000	0.0769239
402.0000	0.0771135
401.5000	0.0773421
401.0000	0.0774601
400.5000	0.0775828
400.0000	0.0775824
399.5000	0.077519
399.0000	0.0774558
398.5000	0.0772745
398.0000	0.0770447
397.5000	0.0765808
397.0000	0.0762609
396.5000	0.0757321
396.0000	0.0753442
395.5000	0.0746169
395.0000	0.0740841
394.5000	0.0732632
394.0000	0.0727024
393.5000	0.0718205
393.0000	0.0712156
392.5000	0.0702715
392.0000	0.0696555
391.5000	0.068851
391.0000	0.0683006
390.5000	0.0674809
390.0000	0.0669886
389.5000	0.0662556
389.0000	0.0658354
388.5000	0.065285
388.0000	0.0649668
387.5000	0.0645918
387.0000	0.0644103
386.5000	0.0642231
386.0000	0.0641277
385.5000	0.0640132
385.0000	0.0639478
384.5000	0.0639761
384.0000	0.0640446
383.5000	0.0642246
383.0000	0.0643926
382.5000	0.0646752
382.0000	0.0648576
381.5000	0.0651956
381.0000	0.0654123
380.5000	0.0657698
380.0000	0.0659943
379.5000	0.0663717
379.0000	0.0666296
378.5000	0.067041
378.0000	0.0673176
377.5000	0.067685
377.0000	0.0679602
376.5000	0.0683389
376.0000	0.0685831
375.5000	0.0689764
375.0000	0.0692166
374.5000	0.0695788
374.0000	0.0698132
373.5000	0.0702173
373.0000	0.0705156
372.5000	0.0709431
372.0000	0.0712547
371.5000	0.0717249
371.0000	0.0720883
370.5000	0.0725199
370.0000	0.0726091
369.5000	0.0731607
369.0000	0.0736111
368.5000	0.0743112
368.0000	0.0747949
367.5000	0.0755166
367.0000	0.0759983
366.5000	0.0767557
366.0000	0.077292
365.5000	0.0780619
365.0000	0.0787169
364.5000	0.0795889
364.0000	0.0802574
363.5000	0.0812421
363.0000	0.0819237
362.5000	0.0828168
362.0000	0.083462
361.5000	0.0844739
361.0000	0.0851823
360.5000	0.0862136
360.0000	0.0868235
359.5000	0.087931
359.0000	0.0885536
358.5000	0.0895726
358.0000	0.0903107
357.5000	0.0912665
357.0000	0.0919473
356.5000	0.0928842
356.0000	0.093543
355.5000	0.0944384
355.0000	0.0951181
354.5000	0.0960295
354.0000	0.0966542
353.5000	0.0975723
353.0000	0.0981579
352.5000	0.0991421
352.0000	0.0997731
351.5000	0.100634
351.0000	0.101168
350.5000	0.102079
350.0000	0.102631
349.5000	0.103432
349.0000	0.104037
348.5000	0.104771
348.0000	0.105303
347.5000	0.106079
347.0000	0.10664
346.5000	0.107325
346.0000	0.107816
345.5000	0.108467
345.0000	0.108941
344.5000	0.109685
344.0000	0.110074
343.5000	0.110786
343.0000	0.11129
342.5000	0.112023
342.0000	0.112411
341.5000	0.113019
341.0000	0.113522
340.5000	0.114203
340.0000	0.117383
339.5000	0.118095
339.0000	0.118636
338.5000	0.119309
338.0000	0.119753
337.5000	0.120561
337.0000	0.121051
336.5000	0.121864
336.0000	0.122455
335.5000	0.123317
335.0000	0.123893
334.5000	0.124852
334.0000	0.125462
333.5000	0.126461
333.0000	0.127136
332.5000	0.128206
332.0000	0.12903
331.5000	0.130254
331.0000	0.131038
330.5000	0.132412
330.0000	0.133295
329.5000	0.134751
329.0000	0.135807
328.5000	0.137509
328.0000	0.138735
327.5000	0.140694
327.0000	0.141959
326.5000	0.144101
326.0000	0.145551
325.5000	0.147926
325.0000	0.149548
324.5000	0.152209
324.0000	0.154058
323.5000	0.156993
323.0000	0.159092
322.5000	0.162377
322.0000	0.164737
321.5000	0.168454
321.0000	0.17108
320.5000	0.175236
320.0000	0.17824
319.5000	0.182881
319.0000	0.186133
318.5000	0.191349
318.0000	0.194964
317.5000	0.200677
317.0000	0.204774
316.5000	0.211141
316.0000	0.215667
315.5000	0.222705
315.0000	0.227616
314.5000	0.235386
314.0000	0.24084
313.5000	0.249366
313.0000	0.255386
312.5000	0.264774
312.0000	0.271348
311.5000	0.281724
311.0000	0.288951
310.5000	0.30027
310.0000	0.308143
309.5000	0.320456
309.0000	0.329023
308.5000	0.342452
308.0000	0.351791
307.5000	0.366433
307.0000	0.376593
306.5000	0.392418
306.0000	0.403527
305.5000	0.420794
305.0000	0.432798
304.5000	0.451432
304.0000	0.464428
303.5000	0.484657
303.0000	0.498625
302.5000	0.520413
302.0000	0.535568
301.5000	0.559063
301.0000	0.575223
300.5000	0.600391
300.0000	0.617627

##### Extended Information
[コメント情報]
試料名
コメント
測定者
所属
会社	関西大学　化学生命工学部

[データ情報]
作成日時	2014/06/04 22:37

データタイプ	等間隔データ
横軸	Wavelength [nm]
縦軸	Abs
スタート	700 nm
エンド	300 nm
データ間隔	0.5 nm
データ数	801     

[測定情報]
装置名	V-670
機種名	V-670
シリアル番号	B118261154

付属品名	USE-753
付属品シリアルNo.	B118261154
  セル長	0.1 mm

測定日時	2014/06/04 22:37

測光モード	Abs
測定範囲	700 - 300 nm
データ取込間隔	0.5 nm
UV/Vis バンド幅	1.0 nm
NIR バンド幅	8.0 nm
レスポンス	Medium
走査速度	400 nm/min
光源切換	340 nm
回折格子切換	850 nm
光源	D2/WI
フィルタ切換	ステップ
補正	ベースライン

