TITLE	
DATA TYPE	ULTRAVIOLET SPECTRUM
ORIGIN	JASCO
OWNER	
DATE	14/06/05
TIME	23:00:22
SPECTROMETER/DATA SYSTEM	
LOCALE	1041
RESOLUTION	
DELTAX	-0.5
XUNITS	NANOMETERS
YUNITS	ABSORBANCE
FIRSTX	  700.0000
LASTX	  300.0000
NPOINTS	     801
FIRSTY	     0.01004
MAXY	     0.41235
MINY	     0.00907
XYDATA
700.0000	0.0100378
699.5000	0.0100354
699.0000	0.010026
698.5000	0.00999843
698.0000	0.00997531
697.5000	0.00999343
697.0000	0.00997631
696.5000	0.00997212
696.0000	0.00995396
695.5000	0.00992152
695.0000	0.00989868
694.5000	0.00988379
694.0000	0.00988504
693.5000	0.00986003
693.0000	0.00983282
692.5000	0.00983176
692.0000	0.00983779
691.5000	0.00982534
691.0000	0.00979119
690.5000	0.00979222
690.0000	0.00976117
689.5000	0.0097572
689.0000	0.00975728
688.5000	0.00973742
688.0000	0.00973223
687.5000	0.00968723
687.0000	0.00968124
686.5000	0.009649
686.0000	0.00962234
685.5000	0.00957823
685.0000	0.00957014
684.5000	0.00954924
684.0000	0.00952314
683.5000	0.00950663
683.0000	0.00949766
682.5000	0.00946186
682.0000	0.00944798
681.5000	0.00939377
681.0000	0.00939187
680.5000	0.00937125
680.0000	0.00936515
679.5000	0.00933638
679.0000	0.00930215
678.5000	0.00926739
678.0000	0.00926155
677.5000	0.00924579
677.0000	0.00922163
676.5000	0.00917805
676.0000	0.00919292
675.5000	0.00916763
675.0000	0.00917312
674.5000	0.00915976
674.0000	0.00916891
673.5000	0.00917255
673.0000	0.00916599
672.5000	0.0091539
672.0000	0.00916196
671.5000	0.00914451
671.0000	0.00911655
670.5000	0.00913805
670.0000	0.00914814
669.5000	0.009155
669.0000	0.00917294
668.5000	0.00917761
668.0000	0.0091581
667.5000	0.00911879
667.0000	0.00910776
666.5000	0.00910097
666.0000	0.00912267
665.5000	0.00911147
665.0000	0.00911147
664.5000	0.00912208
664.0000	0.00909591
663.5000	0.00908851
663.0000	0.00907102
662.5000	0.00908873
662.0000	0.00907518
661.5000	0.00910028
661.0000	0.00909974
660.5000	0.00912953
660.0000	0.00912687
659.5000	0.00912221
659.0000	0.00914812
658.5000	0.00916346
658.0000	0.00918016
657.5000	0.00919442
657.0000	0.00920591
656.5000	0.0092209
656.0000	0.009241
655.5000	0.00927211
655.0000	0.00928177
654.5000	0.0093137
654.0000	0.0093184
653.5000	0.00935024
653.0000	0.00936682
652.5000	0.00936793
652.0000	0.00938733
651.5000	0.0094331
651.0000	0.00945877
650.5000	0.00949273
650.0000	0.00951279
649.5000	0.00949914
649.0000	0.00951192
648.5000	0.00953296
648.0000	0.00956125
647.5000	0.00959526
647.0000	0.00960735
646.5000	0.00964596
646.0000	0.00969744
645.5000	0.00972568
645.0000	0.00974292
644.5000	0.00980271
644.0000	0.00982254
643.5000	0.00991053
643.0000	0.00995274
642.5000	0.0100123
642.0000	0.0100426
641.5000	0.0100945
641.0000	0.0101357
640.5000	0.0102058
640.0000	0.0102407
639.5000	0.0103219
639.0000	0.0103539
638.5000	0.0104042
638.0000	0.0104202
637.5000	0.0104696
637.0000	0.0104941
636.5000	0.0105632
636.0000	0.0106216
635.5000	0.0106981
635.0000	0.0107479
634.5000	0.0108213
634.0000	0.0108698
633.5000	0.0109389
633.0000	0.0109825
632.5000	0.0110741
632.0000	0.0111266
631.5000	0.0112171
631.0000	0.0112783
630.5000	0.0113785
630.0000	0.011441
629.5000	0.0115359
629.0000	0.0115832
628.5000	0.0116861
628.0000	0.0117398
627.5000	0.0118642
627.0000	0.0119127
626.5000	0.0120177
626.0000	0.0121034
625.5000	0.0122416
625.0000	0.0123316
624.5000	0.012448
624.0000	0.0125233
623.5000	0.0126589
623.0000	0.0127221
622.5000	0.0128751
622.0000	0.0129725
621.5000	0.0130901
621.0000	0.013166
620.5000	0.0132971
620.0000	0.0134024
619.5000	0.0135111
619.0000	0.0135824
618.5000	0.0137027
618.0000	0.0138097
617.5000	0.0139344
617.0000	0.014044
616.5000	0.0142125
616.0000	0.0143212
615.5000	0.0144701
615.0000	0.0145763
614.5000	0.0147635
614.0000	0.0148813
613.5000	0.0150446
613.0000	0.0151667
612.5000	0.0153605
612.0000	0.0154844
611.5000	0.0156689
611.0000	0.0157757
610.5000	0.0159496
610.0000	0.0160686
609.5000	0.0162639
609.0000	0.0164184
608.5000	0.0166239
608.0000	0.0167552
607.5000	0.0169654
607.0000	0.0171208
606.5000	0.0173686
606.0000	0.0175197
605.5000	0.0177564
605.0000	0.0179268
604.5000	0.018189
604.0000	0.0183676
603.5000	0.0185948
603.0000	0.0187586
602.5000	0.0190185
602.0000	0.0192135
601.5000	0.0194983
601.0000	0.0196865
600.5000	0.0199534
600.0000	0.0201709
599.5000	0.0204319
599.0000	0.0206438
598.5000	0.0209571
598.0000	0.021174
597.5000	0.0214924
597.0000	0.021708
596.5000	0.0220419
596.0000	0.0222629
595.5000	0.0225975
595.0000	0.022828
594.5000	0.0231895
594.0000	0.0234282
593.5000	0.0238276
593.0000	0.0241082
592.5000	0.0244987
592.0000	0.0247535
591.5000	0.0251493
591.0000	0.0254238
590.5000	0.0258283
590.0000	0.0261136
589.5000	0.0265634
589.0000	0.0268908
588.5000	0.0273712
588.0000	0.0276929
587.5000	0.0281684
587.0000	0.0285291
586.5000	0.0290514
586.0000	0.0293968
585.5000	0.0299511
585.0000	0.0303299
584.5000	0.0309308
584.0000	0.0313308
583.5000	0.0319393
583.0000	0.0323458
582.5000	0.0329835
582.0000	0.0334313
581.5000	0.0341117
581.0000	0.0345908
580.5000	0.0353075
580.0000	0.0358003
579.5000	0.0365566
579.0000	0.0370809
578.5000	0.03789
578.0000	0.038412
577.5000	0.0392484
577.0000	0.0398264
576.5000	0.0407381
576.0000	0.041336
575.5000	0.0422835
575.0000	0.0429235
574.5000	0.0438727
574.0000	0.0445361
573.5000	0.0455457
573.0000	0.0462484
572.5000	0.0473174
572.0000	0.0480583
571.5000	0.0491929
571.0000	0.0499819
570.5000	0.0511766
570.0000	0.0519997
569.5000	0.0532532
569.0000	0.0540879
568.5000	0.055397
568.0000	0.0562939
567.5000	0.0576657
567.0000	0.0586338
566.5000	0.0600823
566.0000	0.0610752
565.5000	0.0625859
565.0000	0.0636246
564.5000	0.0651714
564.0000	0.066255
563.5000	0.0678952
563.0000	0.0690011
562.5000	0.070711
562.0000	0.0718797
561.5000	0.0736488
561.0000	0.0748531
560.5000	0.0766803
560.0000	0.0779178
559.5000	0.0798307
559.0000	0.0811067
558.5000	0.0830646
558.0000	0.0844193
557.5000	0.0864542
557.0000	0.0878144
556.5000	0.089938
556.0000	0.0913682
555.5000	0.0935239
555.0000	0.0949834
554.5000	0.0972154
554.0000	0.098724
553.5000	0.101028
553.0000	0.102558
552.5000	0.104933
552.0000	0.106503
551.5000	0.108904
551.0000	0.110512
550.5000	0.112972
550.0000	0.114618
549.5000	0.117129
549.0000	0.118813
548.5000	0.121359
548.0000	0.123081
547.5000	0.125678
547.0000	0.127421
546.5000	0.130049
546.0000	0.131785
545.5000	0.134449
545.0000	0.13623
544.5000	0.13892
544.0000	0.140714
543.5000	0.143408
543.0000	0.145202
542.5000	0.147939
542.0000	0.14975
541.5000	0.15247
541.0000	0.154268
540.5000	0.156982
540.0000	0.158785
539.5000	0.161488
539.0000	0.16326
538.5000	0.165902
538.0000	0.167641
537.5000	0.170225
537.0000	0.171937
536.5000	0.174432
536.0000	0.176059
535.5000	0.178456
535.0000	0.180025
534.5000	0.18225
534.0000	0.183668
533.5000	0.185751
533.0000	0.187088
532.5000	0.188986
532.0000	0.190184
531.5000	0.191862
531.0000	0.192921
530.5000	0.194378
530.0000	0.195252
529.5000	0.196421
529.0000	0.197112
528.5000	0.19801
528.0000	0.19852
527.5000	0.199166
527.0000	0.199476
526.5000	0.199779
526.0000	0.19988
525.5000	0.199879
525.0000	0.199796
524.5000	0.199473
524.0000	0.199166
523.5000	0.198595
523.0000	0.19811
522.5000	0.197243
522.0000	0.196581
521.5000	0.195479
521.0000	0.194641
520.5000	0.193272
520.0000	0.192201
519.5000	0.19059
519.0000	0.189467
518.5000	0.187711
518.0000	0.186478
517.5000	0.184526
517.0000	0.183191
516.5000	0.181099
516.0000	0.179718
515.5000	0.177568
515.0000	0.176096
514.5000	0.173824
514.0000	0.172296
513.5000	0.169963
513.0000	0.1684
512.5000	0.165981
512.0000	0.164368
511.5000	0.161977
511.0000	0.160384
510.5000	0.15797
510.0000	0.156368
509.5000	0.153923
509.0000	0.152316
508.5000	0.149918
508.0000	0.148348
507.5000	0.145976
507.0000	0.144397
506.5000	0.142043
506.0000	0.14052
505.5000	0.138218
505.0000	0.136699
504.5000	0.13445
504.0000	0.132971
503.5000	0.130771
503.0000	0.129352
502.5000	0.127226
502.0000	0.125806
501.5000	0.123744
501.0000	0.122379
500.5000	0.12037
500.0000	0.11905
499.5000	0.117079
499.0000	0.1158
498.5000	0.113887
498.0000	0.112604
497.5000	0.110734
497.0000	0.10951
496.5000	0.107674
496.0000	0.106481
495.5000	0.10469
495.0000	0.103503
494.5000	0.101759
494.0000	0.100636
493.5000	0.0989289
493.0000	0.0978197
492.5000	0.0961663
492.0000	0.0950382
491.5000	0.0934244
491.0000	0.0923376
490.5000	0.0907073
490.0000	0.0896376
489.5000	0.0880419
489.0000	0.0869899
488.5000	0.0854184
488.0000	0.0843774
487.5000	0.0828076
487.0000	0.0817862
486.5000	0.0802618
486.0000	0.0792246
485.5000	0.077733
485.0000	0.0767197
484.5000	0.0752531
484.0000	0.0743097
483.5000	0.0728695
483.0000	0.0719005
482.5000	0.0705129
482.0000	0.0696002
481.5000	0.0682545
481.0000	0.0673658
480.5000	0.0660546
480.0000	0.0651948
479.5000	0.0639408
479.0000	0.063135
478.5000	0.0619614
478.0000	0.0611782
477.5000	0.0600443
477.0000	0.0593156
476.5000	0.0582977
476.0000	0.0576104
475.5000	0.0566184
475.0000	0.0559993
474.5000	0.0551144
474.0000	0.0545352
473.5000	0.0537463
473.0000	0.053256
472.5000	0.0525481
472.0000	0.0521112
471.5000	0.0515033
471.0000	0.0511415
470.5000	0.050666
470.0000	0.0503827
469.5000	0.0500472
469.0000	0.0498812
468.5000	0.0496717
468.0000	0.0495887
467.5000	0.0495654
467.0000	0.0495991
466.5000	0.0497858
466.0000	0.0499585
465.5000	0.0503516
465.0000	0.0507094
464.5000	0.0513579
464.0000	0.0518681
463.5000	0.052789
463.0000	0.053473
462.5000	0.054685
462.0000	0.0556064
461.5000	0.0571311
461.0000	0.0582478
460.5000	0.0601095
460.0000	0.0614558
459.5000	0.0636514
459.0000	0.0652163
458.5000	0.0677039
458.0000	0.0694435
457.5000	0.0721781
457.0000	0.0740535
456.5000	0.0769252
456.0000	0.0788675
455.5000	0.0817741
455.0000	0.0836885
454.5000	0.0864747
454.0000	0.0882487
453.5000	0.0907538
453.0000	0.0922727
452.5000	0.0943276
452.0000	0.0955113
451.5000	0.0970111
451.0000	0.0978365
450.5000	0.0987585
450.0000	0.0991472
449.5000	0.0994108
449.0000	0.0993594
448.5000	0.0990257
448.0000	0.0986262
447.5000	0.0977829
447.0000	0.0970345
446.5000	0.0957816
446.0000	0.0948108
445.5000	0.0932387
445.0000	0.0920965
444.5000	0.0902277
444.0000	0.0889593
443.5000	0.0869783
443.0000	0.0856292
442.5000	0.0835979
442.0000	0.0822252
441.5000	0.0802018
441.0000	0.0788764
440.5000	0.0769365
440.0000	0.0756718
439.5000	0.073873
439.0000	0.0727469
438.5000	0.0711758
438.0000	0.070203
437.5000	0.0689185
437.0000	0.0681555
436.5000	0.0671996
436.0000	0.0666622
435.5000	0.0660868
435.0000	0.0657978
434.5000	0.0655802
434.0000	0.0655757
433.5000	0.065781
433.0000	0.0660443
432.5000	0.066606
432.0000	0.067114
431.5000	0.0680446
431.0000	0.0687707
430.5000	0.0699963
430.0000	0.0709044
429.5000	0.0723546
429.0000	0.0733514
428.5000	0.07494
428.0000	0.0760114
427.5000	0.0775784
427.0000	0.0785903
426.5000	0.0800508
426.0000	0.0809408
425.5000	0.08221
425.0000	0.082928
424.5000	0.0838374
424.0000	0.0843362
423.5000	0.0849201
423.0000	0.0851649
422.5000	0.0853211
422.0000	0.085308
421.5000	0.0850399
421.0000	0.0847459
420.5000	0.0841335
420.0000	0.0836026
419.5000	0.0826876
419.0000	0.0819816
418.5000	0.0807353
418.0000	0.0798145
417.5000	0.078368
417.0000	0.077389
416.5000	0.0758635
416.0000	0.074822
415.5000	0.0732249
415.0000	0.0721599
414.5000	0.0705853
414.0000	0.0695866
413.5000	0.0680586
413.0000	0.0670572
412.5000	0.0656454
412.0000	0.064818
411.5000	0.0636306
411.0000	0.0629212
410.5000	0.0618868
410.0000	0.0612574
409.5000	0.0604729
409.0000	0.0599941
408.5000	0.0594702
408.0000	0.0591781
407.5000	0.0588464
407.0000	0.0586896
406.5000	0.0586187
406.0000	0.0586352
405.5000	0.0586867
405.0000	0.0587562
404.5000	0.0588902
404.0000	0.0591077
403.5000	0.0593651
403.0000	0.0595538
402.5000	0.0598601
402.0000	0.0600404
401.5000	0.0603179
401.0000	0.0604808
400.5000	0.0606892
400.0000	0.0607768
399.5000	0.0608657
399.0000	0.0609336
398.5000	0.0609791
398.0000	0.0609807
397.5000	0.0608587
397.0000	0.060751
396.5000	0.0605302
396.0000	0.0603527
395.5000	0.0599899
395.0000	0.0597816
394.5000	0.0593787
394.0000	0.0590795
393.5000	0.058689
393.0000	0.0583637
392.5000	0.0578685
392.0000	0.0575697
391.5000	0.0571076
391.0000	0.0568507
390.5000	0.0564959
390.0000	0.0562911
389.5000	0.0559788
389.0000	0.0558283
388.5000	0.0555923
388.0000	0.0554942
387.5000	0.055359
387.0000	0.0552755
386.5000	0.0552898
386.0000	0.0553028
385.5000	0.0553446
385.0000	0.0554235
384.5000	0.0555771
384.0000	0.055677
383.5000	0.055927
383.0000	0.0560643
382.5000	0.0563766
382.0000	0.0566054
381.5000	0.0569472
381.0000	0.0572127
380.5000	0.0576178
380.0000	0.057863
379.5000	0.0582812
379.0000	0.0585709
378.5000	0.0589729
378.0000	0.059256
377.5000	0.059665
377.0000	0.0599179
376.5000	0.0603712
376.0000	0.0606153
375.5000	0.0609764
375.0000	0.0611908
374.5000	0.0615816
374.0000	0.0618685
373.5000	0.0622285
373.0000	0.0625125
372.5000	0.0628933
372.0000	0.0631433
371.5000	0.0635848
371.0000	0.0638801
370.5000	0.0643297
370.0000	0.064464
369.5000	0.064821
369.0000	0.0650961
368.5000	0.0655484
368.0000	0.0658954
367.5000	0.0664247
367.0000	0.066733
366.5000	0.0673971
366.0000	0.06781
365.5000	0.0685198
365.0000	0.0689323
364.5000	0.0696023
364.0000	0.0699943
363.5000	0.0706346
363.0000	0.0710716
362.5000	0.0717859
362.0000	0.072236
361.5000	0.0728865
361.0000	0.0732929
360.5000	0.073913
360.0000	0.0743047
359.5000	0.0748348
359.0000	0.0752114
358.5000	0.075792
358.0000	0.0761295
357.5000	0.0766656
357.0000	0.0769855
356.5000	0.0774535
356.0000	0.077751
355.5000	0.0782049
355.0000	0.0785335
354.5000	0.0790367
354.0000	0.0793125
353.5000	0.0796865
353.0000	0.0799201
352.5000	0.0802237
352.0000	0.0804516
351.5000	0.0807072
351.0000	0.0809441
350.5000	0.0812711
350.0000	0.0814721
349.5000	0.0817558
349.0000	0.0818882
348.5000	0.082084
348.0000	0.0820867
347.5000	0.0822686
347.0000	0.0824275
346.5000	0.0825583
346.0000	0.0826049
345.5000	0.0826922
345.0000	0.0828323
344.5000	0.0829989
344.0000	0.0830523
343.5000	0.083088
343.0000	0.0831552
342.5000	0.0832248
342.0000	0.0832906
341.5000	0.0834563
341.0000	0.0835156
340.5000	0.083684
340.0000	0.0855102
339.5000	0.0857312
339.0000	0.0857434
338.5000	0.0859735
338.0000	0.0860317
337.5000	0.0863488
337.0000	0.0865037
336.5000	0.0868025
336.0000	0.087019
335.5000	0.0873392
335.0000	0.0875496
334.5000	0.0879077
334.0000	0.0881727
333.5000	0.0886147
333.0000	0.0889246
332.5000	0.0895094
332.0000	0.0898731
331.5000	0.0904732
331.0000	0.0909507
330.5000	0.0917833
330.0000	0.0922967
329.5000	0.0930699
329.0000	0.0936052
328.5000	0.094584
328.0000	0.0952277
327.5000	0.0963351
327.0000	0.0971261
326.5000	0.0983844
326.0000	0.0993115
325.5000	0.100735
325.0000	0.101774
324.5000	0.103348
324.0000	0.10448
323.5000	0.106378
323.0000	0.107739
322.5000	0.1099
322.0000	0.111412
321.5000	0.113884
321.0000	0.115566
320.5000	0.118192
320.0000	0.120095
319.5000	0.123147
319.0000	0.125249
318.5000	0.128597
318.0000	0.130958
317.5000	0.134628
317.0000	0.137249
316.5000	0.141314
316.0000	0.144225
315.5000	0.148812
315.0000	0.152055
314.5000	0.157101
314.0000	0.160683
313.5000	0.166245
313.0000	0.17012
312.5000	0.176254
312.0000	0.180568
311.5000	0.187419
311.0000	0.192168
310.5000	0.199665
310.0000	0.204909
309.5000	0.213118
309.0000	0.218839
308.5000	0.227772
308.0000	0.234045
307.5000	0.243905
307.0000	0.250664
306.5000	0.261402
306.0000	0.268804
305.5000	0.280456
305.0000	0.288503
304.5000	0.301129
304.0000	0.309851
303.5000	0.323487
303.0000	0.332883
302.5000	0.347535
302.0000	0.357638
301.5000	0.373292
301.0000	0.384025
300.5000	0.40082
300.0000	0.412348

##### Extended Information
[コメント情報]
試料名
コメント
測定者
所属
会社	関西大学　化学生命工学部

[データ情報]
作成日時	2014/06/05 23:00

データタイプ	等間隔データ
横軸	Wavelength [nm]
縦軸	Abs
スタート	700 nm
エンド	300 nm
データ間隔	0.5 nm
データ数	801     

[測定情報]
装置名	V-670
機種名	V-670
シリアル番号	B118261154

付属品名	USE-753
付属品シリアルNo.	B118261154
  セル長	0.1 mm

測定日時	2014/06/05 23:00

測光モード	Abs
測定範囲	700 - 300 nm
データ取込間隔	0.5 nm
UV/Vis バンド幅	1.0 nm
NIR バンド幅	8.0 nm
レスポンス	Medium
走査速度	400 nm/min
光源切換	340 nm
回折格子切換	850 nm
光源	D2/WI
フィルタ切換	ステップ
補正	ベースライン

