TITLE	
DATA TYPE	ULTRAVIOLET SPECTRUM
ORIGIN	JASCO
OWNER	
DATE	14/05/06
TIME	18:00:22
SPECTROMETER/DATA SYSTEM	
LOCALE	1041
RESOLUTION	
DELTAX	-0.5
XUNITS	NANOMETERS
YUNITS	ABSORBANCE
FIRSTX	  700.0000
LASTX	  300.0000
NPOINTS	     801
FIRSTY	     0.00618
MAXY	     0.99568
MINY	     0.00597
XYDATA
700.0000	0.00618134
699.5000	0.00617218
699.0000	0.00615752
698.5000	0.00615849
698.0000	0.00616618
697.5000	0.00616749
697.0000	0.00616984
696.5000	0.00620538
696.0000	0.00619881
695.5000	0.00618095
695.0000	0.00619279
694.5000	0.00620118
694.0000	0.00619794
693.5000	0.00618714
693.0000	0.0061808
692.5000	0.00618217
692.0000	0.00616963
691.5000	0.00616945
691.0000	0.00615438
690.5000	0.00614968
690.0000	0.00614845
689.5000	0.00612601
689.0000	0.00613386
688.5000	0.00612455
688.0000	0.00609523
687.5000	0.00607833
687.0000	0.00607429
686.5000	0.00606931
686.0000	0.00606024
685.5000	0.00606571
685.0000	0.00605667
684.5000	0.00605279
684.0000	0.00604611
683.5000	0.00602465
683.0000	0.00601582
682.5000	0.00601064
682.0000	0.00598898
681.5000	0.00597497
681.0000	0.0059796
680.5000	0.00598486
680.0000	0.0059963
679.5000	0.00602338
679.0000	0.00600077
678.5000	0.00598187
678.0000	0.00599892
677.5000	0.00599322
677.0000	0.00597808
676.5000	0.00599139
676.0000	0.00600165
675.5000	0.00602723
675.0000	0.00603662
674.5000	0.00604295
674.0000	0.00604974
673.5000	0.00601482
673.0000	0.00600739
672.5000	0.00599755
672.0000	0.00603327
671.5000	0.00604052
671.0000	0.0060469
670.5000	0.00606225
670.0000	0.00608322
669.5000	0.00606587
669.0000	0.00605434
668.5000	0.00606685
668.0000	0.00605911
667.5000	0.00605156
667.0000	0.00605773
666.5000	0.00607337
666.0000	0.00609345
665.5000	0.00606496
665.0000	0.00606711
664.5000	0.00608277
664.0000	0.00609616
663.5000	0.00608051
663.0000	0.00609063
662.5000	0.00610202
662.0000	0.00612037
661.5000	0.00611193
661.0000	0.00614187
660.5000	0.00616307
660.0000	0.0061989
659.5000	0.00624634
659.0000	0.00626595
658.5000	0.00629233
658.0000	0.00630716
657.5000	0.00633202
657.0000	0.00636141
656.5000	0.00639152
656.0000	0.00642441
655.5000	0.00645112
655.0000	0.00647619
654.5000	0.00652011
654.0000	0.00652977
653.5000	0.00655621
653.0000	0.00656402
652.5000	0.0065944
652.0000	0.00662595
651.5000	0.00666635
651.0000	0.00669748
650.5000	0.00671297
650.0000	0.00674193
649.5000	0.00678702
649.0000	0.00681205
648.5000	0.00685646
648.0000	0.0068843
647.5000	0.00694802
647.0000	0.00696682
646.5000	0.0069973
646.0000	0.00704258
645.5000	0.0070781
645.0000	0.00712058
644.5000	0.00715719
644.0000	0.00720657
643.5000	0.00726197
643.0000	0.00729048
642.5000	0.00735239
642.0000	0.00738826
641.5000	0.00746042
641.0000	0.00747467
640.5000	0.00753492
640.0000	0.00758302
639.5000	0.00761782
639.0000	0.00766237
638.5000	0.00772535
638.0000	0.00777618
637.5000	0.00784221
637.0000	0.00789806
636.5000	0.00795978
636.0000	0.00800451
635.5000	0.00806589
635.0000	0.00811769
634.5000	0.008197
634.0000	0.00823445
633.5000	0.00830624
633.0000	0.00836521
632.5000	0.00846173
632.0000	0.00849608
631.5000	0.00857436
631.0000	0.00862492
630.5000	0.00866895
630.0000	0.00873372
629.5000	0.00883257
629.0000	0.00888897
628.5000	0.00896611
628.0000	0.00902047
627.5000	0.00915046
627.0000	0.00921033
626.5000	0.00928353
626.0000	0.00934787
625.5000	0.00944884
625.0000	0.00950521
624.5000	0.00961351
624.0000	0.00969344
623.5000	0.00980431
623.0000	0.00986537
622.5000	0.00998079
622.0000	0.0100548
621.5000	0.0101768
621.0000	0.0102377
620.5000	0.0103731
620.0000	0.0104583
619.5000	0.0105815
619.0000	0.0106538
618.5000	0.0107769
618.0000	0.0108568
617.5000	0.0109841
617.0000	0.0110574
616.5000	0.0112075
616.0000	0.01128
615.5000	0.0114035
615.0000	0.0114675
614.5000	0.0116171
614.0000	0.0116958
613.5000	0.0118207
613.0000	0.0118969
612.5000	0.0120408
612.0000	0.01214
611.5000	0.0122796
611.0000	0.0123727
610.5000	0.0125424
610.0000	0.0126316
609.5000	0.0128034
609.0000	0.0129198
608.5000	0.0130993
608.0000	0.0131961
607.5000	0.0133683
607.0000	0.0134882
606.5000	0.0136797
606.0000	0.0138042
605.5000	0.0139888
605.0000	0.0140984
604.5000	0.0142812
604.0000	0.0143858
603.5000	0.0145575
603.0000	0.0146874
602.5000	0.0148779
602.0000	0.0150078
601.5000	0.0152166
601.0000	0.0153416
600.5000	0.0155256
600.0000	0.0157543
599.5000	0.0159488
599.0000	0.0160885
598.5000	0.016309
598.0000	0.016448
597.5000	0.0166659
597.0000	0.0168003
596.5000	0.0170472
596.0000	0.0171762
595.5000	0.0174053
595.0000	0.0175583
594.5000	0.0177976
594.0000	0.01795
593.5000	0.0182081
593.0000	0.0183767
592.5000	0.0186394
592.0000	0.0187948
591.5000	0.0190495
591.0000	0.0192252
590.5000	0.0194939
590.0000	0.0196671
589.5000	0.0199587
589.0000	0.0201447
588.5000	0.0204406
588.0000	0.0206414
587.5000	0.0209317
587.0000	0.0211369
586.5000	0.0214557
586.0000	0.0216598
585.5000	0.0219788
585.0000	0.0221865
584.5000	0.022516
584.0000	0.0227651
583.5000	0.0230785
583.0000	0.0233065
582.5000	0.0236584
582.0000	0.0239039
581.5000	0.0242706
581.0000	0.0245149
580.5000	0.0248559
580.0000	0.0250971
579.5000	0.0254742
579.0000	0.0257225
578.5000	0.0261344
578.0000	0.0264074
577.5000	0.0268103
577.0000	0.0270968
576.5000	0.0275227
576.0000	0.0277914
575.5000	0.0282432
575.0000	0.0285122
574.5000	0.0289985
574.0000	0.0293335
573.5000	0.0298065
573.0000	0.0301197
572.5000	0.0306294
572.0000	0.030986
571.5000	0.0314824
571.0000	0.0318005
570.5000	0.0323109
570.0000	0.0326589
569.5000	0.03318
569.0000	0.0335145
568.5000	0.0340382
568.0000	0.0343977
567.5000	0.0349314
567.0000	0.0352929
566.5000	0.0358399
566.0000	0.0362285
565.5000	0.0367714
565.0000	0.0371652
564.5000	0.0377416
564.0000	0.038153
563.5000	0.0387366
563.0000	0.0391255
562.5000	0.0397246
562.0000	0.0401528
561.5000	0.0407386
561.0000	0.0411449
560.5000	0.0417481
560.0000	0.0421608
559.5000	0.04274
559.0000	0.0431537
558.5000	0.0437599
558.0000	0.0441933
557.5000	0.0448118
557.0000	0.045228
556.5000	0.0458548
556.0000	0.0462795
555.5000	0.0469043
555.0000	0.0473336
554.5000	0.0479577
554.0000	0.0483871
553.5000	0.0490006
553.0000	0.049404
552.5000	0.0500182
552.0000	0.0504212
551.5000	0.0510114
551.0000	0.0514013
550.5000	0.0519942
550.0000	0.0523861
549.5000	0.0529733
549.0000	0.0533399
548.5000	0.0538957
548.0000	0.0542588
547.5000	0.0548093
547.0000	0.0551542
546.5000	0.0556721
546.0000	0.0559872
545.5000	0.0564878
545.0000	0.0567878
544.5000	0.0572357
544.0000	0.0575146
543.5000	0.0579156
543.0000	0.0581518
542.5000	0.0585313
542.0000	0.0587522
541.5000	0.0590959
541.0000	0.0592902
540.5000	0.0595938
540.0000	0.0597754
539.5000	0.060047
539.0000	0.0601777
538.5000	0.0603941
538.0000	0.0605207
537.5000	0.0606609
537.0000	0.0607415
536.5000	0.0608592
536.0000	0.0608882
535.5000	0.0609599
535.0000	0.0609636
534.5000	0.060979
534.0000	0.0609593
533.5000	0.0609158
533.0000	0.0608695
532.5000	0.0608056
532.0000	0.0607336
531.5000	0.06061
531.0000	0.0605063
530.5000	0.0603449
530.0000	0.0602292
529.5000	0.0600225
529.0000	0.0598693
528.5000	0.0596348
528.0000	0.0594596
527.5000	0.0591642
527.0000	0.0589854
526.5000	0.0586683
526.0000	0.0584595
525.5000	0.0581057
525.0000	0.0578855
524.5000	0.0575202
524.0000	0.057285
523.5000	0.0568752
523.0000	0.0566132
522.5000	0.0562096
522.0000	0.0559212
521.5000	0.0554869
521.0000	0.0552042
520.5000	0.05475
520.0000	0.0545342
519.5000	0.0540847
519.0000	0.0537445
518.5000	0.0532434
518.0000	0.0529146
517.5000	0.0524512
517.0000	0.052121
516.5000	0.0516168
516.0000	0.0512964
515.5000	0.0507863
515.0000	0.0504369
514.5000	0.0499413
514.0000	0.0496147
513.5000	0.0491188
513.0000	0.048804
512.5000	0.0483088
512.0000	0.0480022
511.5000	0.0475095
511.0000	0.0471716
510.5000	0.0466661
510.0000	0.0463311
509.5000	0.0458374
509.0000	0.0455055
508.5000	0.0450053
508.0000	0.0446662
507.5000	0.044186
507.0000	0.0438593
506.5000	0.0433249
506.0000	0.0429828
505.5000	0.0424725
505.0000	0.0421783
504.5000	0.041681
504.0000	0.0413988
503.5000	0.040927
503.0000	0.0406081
502.5000	0.0401369
502.0000	0.0398471
501.5000	0.039374
501.0000	0.0390715
500.5000	0.0386365
500.0000	0.0383635
499.5000	0.0379509
499.0000	0.0376859
498.5000	0.037229
498.0000	0.0369671
497.5000	0.0365559
497.0000	0.0362939
496.5000	0.0359045
496.0000	0.0356526
495.5000	0.0352703
495.0000	0.0350423
494.5000	0.0346847
494.0000	0.0344365
493.5000	0.0340645
493.0000	0.0338265
492.5000	0.0334808
492.0000	0.0332504
491.5000	0.0328868
491.0000	0.0326549
490.5000	0.0323539
490.0000	0.032128
489.5000	0.0318026
489.0000	0.0315924
488.5000	0.0312839
488.0000	0.031067
487.5000	0.0307832
487.0000	0.0306038
486.5000	0.0303263
486.0000	0.0301725
485.5000	0.0299291
485.0000	0.0297555
484.5000	0.0295186
484.0000	0.0293578
483.5000	0.0291303
483.0000	0.0289883
482.5000	0.0288051
482.0000	0.0286904
481.5000	0.0285008
481.0000	0.0284024
480.5000	0.0282297
480.0000	0.028144
479.5000	0.0279762
479.0000	0.0278961
478.5000	0.027818
478.0000	0.0277493
477.5000	0.0276687
477.0000	0.0276166
476.5000	0.0276232
476.0000	0.02761
475.5000	0.0275934
475.0000	0.0276275
474.5000	0.027705
474.0000	0.0277856
473.5000	0.0279314
473.0000	0.0280468
472.5000	0.0282682
472.0000	0.0284414
471.5000	0.0287654
471.0000	0.0289924
470.5000	0.0294037
470.0000	0.0297102
469.5000	0.0302511
469.0000	0.0306619
468.5000	0.0313439
468.0000	0.0318631
467.5000	0.0327293
467.0000	0.0333717
466.5000	0.0344469
466.0000	0.0352547
465.5000	0.0365707
465.0000	0.037533
464.5000	0.0391692
464.0000	0.0403633
463.5000	0.0423041
463.0000	0.0437266
462.5000	0.0460238
462.0000	0.0476985
461.5000	0.0503891
461.0000	0.0523417
460.5000	0.0554785
460.0000	0.0577134
459.5000	0.061258
459.0000	0.0637703
458.5000	0.0677268
458.0000	0.0704434
457.5000	0.0746977
457.0000	0.0775945
456.5000	0.082048
456.0000	0.0850562
455.5000	0.0894864
455.0000	0.0923845
454.5000	0.0966025
454.0000	0.0992477
453.5000	0.102947
453.0000	0.105219
452.5000	0.108277
452.0000	0.110051
451.5000	0.112307
451.0000	0.113506
450.5000	0.114852
450.0000	0.11547
449.5000	0.115925
449.0000	0.115965
448.5000	0.115649
448.0000	0.11517
447.5000	0.114182
447.0000	0.113326
446.5000	0.111815
446.0000	0.110649
445.5000	0.108715
445.0000	0.107322
444.5000	0.105119
444.0000	0.103564
443.5000	0.101155
443.0000	0.0995314
442.5000	0.097078
442.0000	0.0954325
441.5000	0.0929672
441.0000	0.0913614
440.5000	0.0889905
440.0000	0.0874885
439.5000	0.0853094
439.0000	0.0839592
438.5000	0.0820743
438.0000	0.0809129
437.5000	0.079313
437.0000	0.0784152
436.5000	0.0773105
436.0000	0.0766842
435.5000	0.0760057
435.0000	0.0757571
434.5000	0.0755705
434.0000	0.0756325
433.5000	0.07597
433.0000	0.0763991
432.5000	0.0772767
432.0000	0.0780153
431.5000	0.0793424
431.0000	0.0803829
430.5000	0.0821283
430.0000	0.0833627
429.5000	0.0853674
429.0000	0.0867457
428.5000	0.0888615
428.0000	0.0903012
427.5000	0.0924145
427.0000	0.0937389
426.5000	0.0956224
426.0000	0.0967849
425.5000	0.0984035
425.0000	0.0993249
424.5000	0.100451
424.0000	0.101042
423.5000	0.101692
423.0000	0.101929
422.5000	0.101997
422.0000	0.101894
421.5000	0.101452
421.0000	0.100959
420.5000	0.0999806
420.0000	0.0991151
419.5000	0.0976854
419.0000	0.0965851
418.5000	0.0948007
418.0000	0.0935496
417.5000	0.0914765
417.0000	0.0900182
416.5000	0.0877836
416.0000	0.0862782
415.5000	0.0840053
415.0000	0.0825172
414.5000	0.0802867
414.0000	0.0787679
413.5000	0.0766388
413.0000	0.0753428
412.5000	0.0733933
412.0000	0.072127
411.5000	0.0703668
411.0000	0.069301
410.5000	0.0678646
410.0000	0.0670061
409.5000	0.0657702
409.0000	0.065126
408.5000	0.0641843
408.0000	0.0636917
407.5000	0.0630919
407.0000	0.0627939
406.5000	0.0624008
406.0000	0.062219
405.5000	0.0621521
405.0000	0.0621214
404.5000	0.062161
404.0000	0.0621952
403.5000	0.0623232
403.0000	0.0624342
402.5000	0.0625275
402.0000	0.0626414
401.5000	0.0627822
401.0000	0.0628209
400.5000	0.0627989
400.0000	0.0628038
399.5000	0.0626361
399.0000	0.0624611
398.5000	0.0621811
398.0000	0.0619289
397.5000	0.0614656
397.0000	0.0611051
396.5000	0.060529
396.0000	0.0600739
395.5000	0.0593112
395.0000	0.0587427
394.5000	0.0579233
394.0000	0.0573718
393.5000	0.0564972
393.0000	0.0559077
392.5000	0.0550136
392.0000	0.0543935
391.5000	0.0535086
391.0000	0.052936
390.5000	0.052162
390.0000	0.0516295
389.5000	0.0509411
389.0000	0.0504909
388.5000	0.0499255
388.0000	0.0495596
387.5000	0.0490738
387.0000	0.0487708
386.5000	0.0484705
386.0000	0.0482863
385.5000	0.0480869
385.0000	0.0479763
384.5000	0.0479683
384.0000	0.0479916
383.5000	0.0480511
383.0000	0.0481537
382.5000	0.0483363
382.0000	0.0484839
381.5000	0.048706
381.0000	0.0488635
380.5000	0.0491831
380.0000	0.0493804
379.5000	0.0497222
379.0000	0.0499359
378.5000	0.0503021
378.0000	0.0504938
377.5000	0.050797
377.0000	0.0510114
376.5000	0.0513641
376.0000	0.0515952
375.5000	0.0519727
375.0000	0.0522477
374.5000	0.0526608
374.0000	0.0529307
373.5000	0.0533572
373.0000	0.0536281
372.5000	0.0540891
372.0000	0.0543769
371.5000	0.0548719
371.0000	0.0552444
370.5000	0.0558719
370.0000	0.0564494
369.5000	0.0570796
369.0000	0.0575278
368.5000	0.0583162
368.0000	0.0588811
367.5000	0.0596558
367.0000	0.0602463
366.5000	0.0611892
366.0000	0.0618309
365.5000	0.0628291
365.0000	0.0634855
364.5000	0.064517
364.0000	0.0652788
363.5000	0.0663514
363.0000	0.0671204
362.5000	0.0683285
362.0000	0.0691379
361.5000	0.0702701
361.0000	0.0710159
360.5000	0.072233
360.0000	0.0730599
359.5000	0.0742509
359.0000	0.075021
358.5000	0.076176
358.0000	0.076986
357.5000	0.0781883
357.0000	0.0789277
356.5000	0.0800359
356.0000	0.0807706
355.5000	0.0818714
355.0000	0.0825924
354.5000	0.0836725
354.0000	0.0843182
353.5000	0.0853135
353.0000	0.0859665
352.5000	0.0869423
352.0000	0.0876389
351.5000	0.088604
351.0000	0.0891477
350.5000	0.090007
350.0000	0.0906311
349.5000	0.0914238
349.0000	0.0919763
348.5000	0.0928103
348.0000	0.0932754
347.5000	0.0940485
347.0000	0.0945749
346.5000	0.0953505
346.0000	0.0958544
345.5000	0.0965371
345.0000	0.0970367
344.5000	0.0978777
344.0000	0.098411
343.5000	0.0992288
343.0000	0.0998691
342.5000	0.100712
342.0000	0.101287
341.5000	0.102309
341.0000	0.102933
340.5000	0.103823
340.0000	0.105033
339.5000	0.106088
339.0000	0.106741
338.5000	0.107808
338.0000	0.108591
337.5000	0.109692
337.0000	0.110526
336.5000	0.111927
336.0000	0.112879
335.5000	0.114415
335.0000	0.11547
334.5000	0.11709
334.0000	0.118293
333.5000	0.120143
333.0000	0.121431
332.5000	0.123551
332.0000	0.125056
331.5000	0.12742
331.0000	0.129143
330.5000	0.131744
330.0000	0.133624
329.5000	0.136513
329.0000	0.138543
328.5000	0.141848
328.0000	0.144223
327.5000	0.147984
327.0000	0.1506
326.5000	0.154833
326.0000	0.157771
325.5000	0.16237
325.0000	0.165618
324.5000	0.170785
324.0000	0.174453
323.5000	0.18012
323.0000	0.184137
322.5000	0.190438
322.0000	0.19488
321.5000	0.201897
321.0000	0.20674
320.5000	0.214496
320.0000	0.219976
319.5000	0.22858
319.0000	0.234604
318.5000	0.244149
318.0000	0.250841
317.5000	0.261333
317.0000	0.268726
316.5000	0.280314
316.0000	0.288444
315.5000	0.30118
315.0000	0.310038
314.5000	0.324136
314.0000	0.333878
313.5000	0.349173
313.0000	0.35982
312.5000	0.376577
312.0000	0.388221
311.5000	0.406566
311.0000	0.419245
310.5000	0.439135
310.0000	0.453039
309.5000	0.47486
309.0000	0.48999
308.5000	0.513613
308.0000	0.530064
307.5000	0.555834
307.0000	0.573732
306.5000	0.601733
306.0000	0.621127
305.5000	0.651368
305.0000	0.672419
304.5000	0.705322
304.0000	0.728078
303.5000	0.763435
303.0000	0.787876
302.5000	0.826128
302.0000	0.852445
301.5000	0.89335
301.0000	0.921556
300.5000	0.965467
300.0000	0.995684

##### Extended Information
[コメント情報]
試料名
コメント
測定者
所属
会社	関西大学　化学生命工学部

[データ情報]
作成日時	2014/05/06 18:00

データタイプ	等間隔データ
横軸	Wavelength [nm]
縦軸	Abs
スタート	700 nm
エンド	300 nm
データ間隔	0.5 nm
データ数	801     

[測定情報]
装置名	V-670
機種名	V-670
シリアル番号	B118261154

付属品名	USE-753
付属品シリアルNo.	B118261154
  セル長	0.1 mm

測定日時	2014/05/06 18:00

測光モード	Abs
測定範囲	700 - 300 nm
データ取込間隔	0.5 nm
UV/Vis バンド幅	1.0 nm
NIR バンド幅	8.0 nm
レスポンス	Medium
走査速度	400 nm/min
光源切換	340 nm
回折格子切換	850 nm
光源	D2/WI
フィルタ切換	ステップ
補正	ベースライン

