TITLE	
DATA TYPE	ULTRAVIOLET SPECTRUM
ORIGIN	JASCO
OWNER	
DATE	14/05/19
TIME	23:32:38
SPECTROMETER/DATA SYSTEM	
LOCALE	1041
RESOLUTION	
DELTAX	-0.5
XUNITS	NANOMETERS
YUNITS	ABSORBANCE
FIRSTX	  700.0000
LASTX	  300.0000
NPOINTS	     801
FIRSTY	     0.01032
MAXY	     1.58215
MINY	     0.00796
XYDATA
700.0000	0.0103249
699.5000	0.0102652
699.0000	0.0102266
698.5000	0.0101748
698.0000	0.0101373
697.5000	0.0100804
697.0000	0.0100331
696.5000	0.0100087
696.0000	0.00998105
695.5000	0.00994098
695.0000	0.00991473
694.5000	0.00987519
694.0000	0.00983885
693.5000	0.00979063
693.0000	0.0097688
692.5000	0.00974295
692.0000	0.00971259
691.5000	0.00967214
691.0000	0.00965808
690.5000	0.00961898
690.0000	0.00958563
689.5000	0.00953653
689.0000	0.00951282
688.5000	0.00947673
688.0000	0.0094438
687.5000	0.00942021
687.0000	0.00938496
686.5000	0.00933726
686.0000	0.00930521
685.5000	0.00926067
685.0000	0.00922349
684.5000	0.00918408
684.0000	0.00914961
683.5000	0.00910879
683.0000	0.00906744
682.5000	0.00900641
682.0000	0.00897656
681.5000	0.00892066
681.0000	0.00887426
680.5000	0.00882302
680.0000	0.00881555
679.5000	0.00876141
679.0000	0.00873881
678.5000	0.00870436
678.0000	0.00867885
677.5000	0.00865047
677.0000	0.00860684
676.5000	0.0085602
676.0000	0.00853543
675.5000	0.00852512
675.0000	0.00848294
674.5000	0.00844427
674.0000	0.00842958
673.5000	0.00838183
673.0000	0.00837953
672.5000	0.0083405
672.0000	0.00831379
671.5000	0.00829308
671.0000	0.00826651
670.5000	0.00825351
670.0000	0.00823547
669.5000	0.00822349
669.0000	0.00819767
668.5000	0.00816376
668.0000	0.00814282
667.5000	0.00813271
667.0000	0.00813304
666.5000	0.00810558
666.0000	0.0080996
665.5000	0.00809799
665.0000	0.0080714
664.5000	0.00805226
664.0000	0.00803855
663.5000	0.00801899
663.0000	0.00802251
662.5000	0.00803229
662.0000	0.00803287
661.5000	0.0080456
661.0000	0.00805326
660.5000	0.00803335
660.0000	0.00804129
659.5000	0.00803723
659.0000	0.00804726
658.5000	0.00803347
658.0000	0.00803116
657.5000	0.00802459
657.0000	0.00802675
656.5000	0.00801809
656.0000	0.00801531
655.5000	0.00800415
655.0000	0.00800295
654.5000	0.0079683
654.0000	0.00796528
653.5000	0.00796041
653.0000	0.00795979
652.5000	0.007957
652.0000	0.00797248
651.5000	0.00798871
651.0000	0.0080006
650.5000	0.00804406
650.0000	0.00805956
649.5000	0.00807049
649.0000	0.00810367
648.5000	0.008126
648.0000	0.00813668
647.5000	0.00817423
647.0000	0.00818138
646.5000	0.00820386
646.0000	0.00822208
645.5000	0.00823271
645.0000	0.00824533
644.5000	0.00826667
644.0000	0.00826086
643.5000	0.00830779
643.0000	0.00833419
642.5000	0.00833913
642.0000	0.0083513
641.5000	0.00839008
641.0000	0.00840334
640.5000	0.00844201
640.0000	0.00846902
639.5000	0.00848785
639.0000	0.0085265
638.5000	0.00854885
638.0000	0.00857865
637.5000	0.00858578
637.0000	0.00858781
636.5000	0.00859346
636.0000	0.00861576
635.5000	0.00863959
635.0000	0.00866193
634.5000	0.0086868
634.0000	0.00870735
633.5000	0.00872821
633.0000	0.00876265
632.5000	0.00880925
632.0000	0.00885155
631.5000	0.0088878
631.0000	0.00893507
630.5000	0.00898554
630.0000	0.00902617
629.5000	0.00907166
629.0000	0.00911937
628.5000	0.00917949
628.0000	0.00923198
627.5000	0.00928768
627.0000	0.00933923
626.5000	0.00938066
626.0000	0.00941354
625.5000	0.00947039
625.0000	0.00951472
624.5000	0.00956192
624.0000	0.0095955
623.5000	0.00966615
623.0000	0.00971436
622.5000	0.00975196
622.0000	0.00977926
621.5000	0.00983865
621.0000	0.00988067
620.5000	0.0099343
620.0000	0.00998739
619.5000	0.0100382
619.0000	0.0100885
618.5000	0.0101755
618.0000	0.0102384
617.5000	0.0103207
617.0000	0.0103506
616.5000	0.0104459
616.0000	0.0105278
615.5000	0.0106259
615.0000	0.0106905
614.5000	0.0107878
614.0000	0.0108513
613.5000	0.0109242
613.0000	0.0110163
612.5000	0.0110984
612.0000	0.0111443
611.5000	0.0112395
611.0000	0.0113137
610.5000	0.0114473
610.0000	0.0115037
609.5000	0.0115841
609.0000	0.0116682
608.5000	0.0117853
608.0000	0.0118732
607.5000	0.0119804
607.0000	0.0120585
606.5000	0.0121687
606.0000	0.0122569
605.5000	0.0123571
605.0000	0.0124418
604.5000	0.0125389
604.0000	0.0126073
603.5000	0.0127228
603.0000	0.01283
602.5000	0.0129454
602.0000	0.0130355
601.5000	0.0131555
601.0000	0.0132304
600.5000	0.0134024
600.0000	0.0135021
599.5000	0.0136339
599.0000	0.0137204
598.5000	0.0138627
598.0000	0.0139826
597.5000	0.0141478
597.0000	0.0142636
596.5000	0.014429
596.0000	0.0145543
595.5000	0.0147138
595.0000	0.0148341
594.5000	0.0149978
594.0000	0.0150978
593.5000	0.015274
593.0000	0.0154126
592.5000	0.0156095
592.0000	0.0157386
591.5000	0.0159231
591.0000	0.0160643
590.5000	0.0162406
590.0000	0.0163725
589.5000	0.0165806
589.0000	0.0167416
588.5000	0.0169525
588.0000	0.0171047
587.5000	0.0173236
587.0000	0.0174835
586.5000	0.0176961
586.0000	0.0178306
585.5000	0.0180456
585.0000	0.0182108
584.5000	0.0184344
584.0000	0.0185963
583.5000	0.0188483
583.0000	0.0190182
582.5000	0.0192565
582.0000	0.0194243
581.5000	0.0196765
581.0000	0.0198619
580.5000	0.0201142
580.0000	0.0202988
579.5000	0.0205779
579.0000	0.0207765
578.5000	0.0210643
578.0000	0.0212637
577.5000	0.0215586
577.0000	0.0217743
576.5000	0.0220837
576.0000	0.0222878
575.5000	0.0226235
575.0000	0.0228413
574.5000	0.0231836
574.0000	0.0234074
573.5000	0.0237514
573.0000	0.0239995
572.5000	0.0243564
572.0000	0.0245774
571.5000	0.0249385
571.0000	0.0251811
570.5000	0.0255449
570.0000	0.0257881
569.5000	0.0261657
569.0000	0.026416
568.5000	0.0268265
568.0000	0.0270799
567.5000	0.0275096
567.0000	0.0277855
566.5000	0.0281928
566.0000	0.0284717
565.5000	0.0289015
565.0000	0.0291909
564.5000	0.0296189
564.0000	0.0299109
563.5000	0.0303524
563.0000	0.0306576
562.5000	0.0311382
562.0000	0.0314443
561.5000	0.0319101
561.0000	0.0322163
560.5000	0.0327235
560.0000	0.0330557
559.5000	0.03353
559.0000	0.0338615
558.5000	0.0343554
558.0000	0.0346954
557.5000	0.0352043
557.0000	0.0355447
556.5000	0.0360628
556.0000	0.0363967
555.5000	0.0368989
555.0000	0.0372531
554.5000	0.037769
554.0000	0.038108
553.5000	0.0386483
553.0000	0.039002
552.5000	0.0395495
552.0000	0.0399148
551.5000	0.040449
551.0000	0.0408249
550.5000	0.0413641
550.0000	0.0417423
549.5000	0.0422654
549.0000	0.0426212
548.5000	0.0431734
548.0000	0.0435484
547.5000	0.0440734
547.0000	0.0444308
546.5000	0.0449685
546.0000	0.045316
545.5000	0.0458247
545.0000	0.0461815
544.5000	0.0466629
544.0000	0.0470037
543.5000	0.0474908
543.0000	0.0478262
542.5000	0.0483188
542.0000	0.0486372
541.5000	0.0490841
541.0000	0.0493926
540.5000	0.049835
540.0000	0.0501363
539.5000	0.0505713
539.0000	0.05086
538.5000	0.0512762
538.0000	0.0515629
537.5000	0.0519538
537.0000	0.0522131
536.5000	0.0526056
536.0000	0.0528683
535.5000	0.0532238
535.0000	0.0534699
534.5000	0.0538308
534.0000	0.0540715
533.5000	0.0543928
533.0000	0.054601
532.5000	0.0549367
532.0000	0.0551463
531.5000	0.0554353
531.0000	0.0556318
530.5000	0.0559298
530.0000	0.0561013
529.5000	0.0563737
529.0000	0.0565631
528.5000	0.0568335
528.0000	0.0570081
527.5000	0.0572605
527.0000	0.0574319
526.5000	0.0576941
526.0000	0.0578437
525.5000	0.0580917
525.0000	0.0582641
524.5000	0.0585082
524.0000	0.0586563
523.5000	0.0588977
523.0000	0.0590404
522.5000	0.0592641
522.0000	0.0594142
521.5000	0.0596427
521.0000	0.0597768
520.5000	0.0600095
520.0000	0.0601393
519.5000	0.060383
519.0000	0.0605554
518.5000	0.0608217
518.0000	0.0609628
517.5000	0.0612083
517.0000	0.0613534
516.5000	0.0616339
516.0000	0.0618159
515.5000	0.0620972
515.0000	0.0622788
514.5000	0.0625511
514.0000	0.0627451
513.5000	0.0630518
513.0000	0.063246
512.5000	0.0635231
512.0000	0.0637223
511.5000	0.0640107
511.0000	0.0642193
510.5000	0.0645389
510.0000	0.0647348
509.5000	0.0650296
509.0000	0.0652239
508.5000	0.0655269
508.0000	0.0657493
507.5000	0.0660538
507.0000	0.0662524
506.5000	0.0665671
506.0000	0.0668124
505.5000	0.067133
505.0000	0.0673434
504.5000	0.0676823
504.0000	0.0679023
503.5000	0.0682132
503.0000	0.068426
502.5000	0.068761
502.0000	0.0689793
501.5000	0.0692842
501.0000	0.0694922
500.5000	0.0698368
500.0000	0.070065
499.5000	0.070356
499.0000	0.0705715
498.5000	0.0709192
498.0000	0.0711218
497.5000	0.071447
497.0000	0.0716546
496.5000	0.0719954
496.0000	0.0722047
495.5000	0.0724945
495.0000	0.0726944
494.5000	0.0729935
494.0000	0.0731902
493.5000	0.073461
493.0000	0.0736386
492.5000	0.0739004
492.0000	0.0740685
491.5000	0.0743432
491.0000	0.0745217
490.5000	0.0747529
490.0000	0.0749277
489.5000	0.0751884
489.0000	0.0753661
488.5000	0.0756145
488.0000	0.0757749
487.5000	0.0760373
487.0000	0.0762094
486.5000	0.0764734
486.0000	0.0766375
485.5000	0.0768639
485.0000	0.0770285
484.5000	0.0772753
484.0000	0.0774591
483.5000	0.0776718
483.0000	0.0778154
482.5000	0.0780382
482.0000	0.0781881
481.5000	0.0784023
481.0000	0.0785391
480.5000	0.0787297
480.0000	0.0788722
479.5000	0.079077
479.0000	0.0792252
478.5000	0.0794184
478.0000	0.0795677
477.5000	0.0797467
477.0000	0.0798829
476.5000	0.0800842
476.0000	0.0802338
475.5000	0.0804479
475.0000	0.0805936
474.5000	0.0808073
474.0000	0.0809689
473.5000	0.0811928
473.0000	0.0813591
472.5000	0.0816086
472.0000	0.0818203
471.5000	0.0820958
471.0000	0.0823017
470.5000	0.0826278
470.0000	0.0828862
469.5000	0.0832604
469.0000	0.0835546
468.5000	0.0839817
468.0000	0.0843356
467.5000	0.0849082
467.0000	0.0852959
466.5000	0.0859158
466.0000	0.0864049
465.5000	0.0871662
465.0000	0.0877426
464.5000	0.0886778
464.0000	0.089371
463.5000	0.090457
463.0000	0.0912602
462.5000	0.0925706
462.0000	0.0935739
461.5000	0.0951306
461.0000	0.0962231
460.5000	0.0980442
460.0000	0.0993584
459.5000	0.101424
459.0000	0.10288
458.5000	0.105182
458.0000	0.106788
457.5000	0.109243
457.0000	0.110958
456.5000	0.113512
456.0000	0.115202
455.5000	0.117634
455.0000	0.119203
454.5000	0.121408
454.0000	0.122771
453.5000	0.12456
453.0000	0.125592
452.5000	0.126902
452.0000	0.127542
451.5000	0.128252
451.0000	0.128527
450.5000	0.128603
450.0000	0.128467
449.5000	0.128001
449.0000	0.127536
448.5000	0.126636
448.0000	0.125938
447.5000	0.124733
447.0000	0.123831
446.5000	0.122339
446.0000	0.121294
445.5000	0.11968
445.0000	0.118524
444.5000	0.11678
444.0000	0.115584
443.5000	0.11379
443.0000	0.11259
442.5000	0.11078
442.0000	0.109567
441.5000	0.107773
441.0000	0.106576
440.5000	0.104848
440.0000	0.10373
439.5000	0.10208
439.0000	0.101041
438.5000	0.0995804
438.0000	0.0986741
437.5000	0.0974789
437.0000	0.0967034
436.5000	0.0956802
436.0000	0.0950817
435.5000	0.0943302
435.0000	0.0939456
434.5000	0.0935251
434.0000	0.0933389
433.5000	0.0932395
433.0000	0.0932661
432.5000	0.0934486
432.0000	0.0936624
431.5000	0.0940705
431.0000	0.0944378
430.5000	0.0951353
430.0000	0.0956054
429.5000	0.0964031
429.0000	0.0969449
428.5000	0.0977199
428.0000	0.098217
427.5000	0.0989264
427.0000	0.0993491
426.5000	0.0998915
426.0000	0.100154
425.5000	0.100439
425.0000	0.100524
424.5000	0.100506
424.0000	0.10039
423.5000	0.100039
423.0000	0.0997098
422.5000	0.099042
422.0000	0.0984806
421.5000	0.0975276
421.0000	0.0967679
420.5000	0.0954821
420.0000	0.0945366
419.5000	0.0930366
419.0000	0.0920099
418.5000	0.0903865
418.0000	0.0892893
417.5000	0.0874882
417.0000	0.0863122
416.5000	0.0844689
416.0000	0.0833096
415.5000	0.0814836
415.0000	0.0803338
414.5000	0.0785984
414.0000	0.077464
413.5000	0.0758089
413.0000	0.0747302
412.5000	0.0731988
412.0000	0.0722383
411.5000	0.0708134
411.0000	0.0699516
410.5000	0.0687222
410.0000	0.0680375
409.5000	0.0669651
409.0000	0.0663506
408.5000	0.0654609
408.0000	0.0649511
407.5000	0.0642569
407.0000	0.0638616
406.5000	0.0633566
406.0000	0.0630459
405.5000	0.0626219
405.0000	0.0624129
404.5000	0.06213
404.0000	0.0619308
403.5000	0.0616502
403.0000	0.0614753
402.5000	0.061235
402.0000	0.0610915
401.5000	0.0607545
401.0000	0.0605394
400.5000	0.0601384
400.0000	0.0599106
399.5000	0.0595126
399.0000	0.0591659
398.5000	0.058639
398.0000	0.0582663
397.5000	0.05763
397.0000	0.0571651
396.5000	0.0564399
396.0000	0.0559626
395.5000	0.0551829
395.0000	0.0546983
394.5000	0.0539351
394.0000	0.0534039
393.5000	0.0525625
393.0000	0.0520109
392.5000	0.0512205
392.0000	0.0507217
391.5000	0.0499969
391.0000	0.0495762
390.5000	0.048882
390.0000	0.0485057
389.5000	0.047873
389.0000	0.0475037
388.5000	0.0469696
388.0000	0.0466751
387.5000	0.0462503
387.0000	0.0460133
386.5000	0.0457456
386.0000	0.0455455
385.5000	0.0453424
385.0000	0.0452658
384.5000	0.0451092
384.0000	0.0450746
383.5000	0.0449809
383.0000	0.0450048
382.5000	0.0450466
382.0000	0.0450766
381.5000	0.0451327
381.0000	0.0452111
380.5000	0.0452932
380.0000	0.0453591
379.5000	0.0454963
379.0000	0.045574
378.5000	0.0456739
378.0000	0.0457674
377.5000	0.0458979
377.0000	0.0459904
376.5000	0.0460734
376.0000	0.0461916
375.5000	0.0463907
375.0000	0.0464921
374.5000	0.0466861
374.0000	0.0468408
373.5000	0.0470686
373.0000	0.0472321
372.5000	0.0474757
372.0000	0.0476488
371.5000	0.0479933
371.0000	0.0481957
370.5000	0.0485903
370.0000	0.0484681
369.5000	0.0487873
369.0000	0.0490117
368.5000	0.0493668
368.0000	0.0496012
367.5000	0.0500035
367.0000	0.0502855
366.5000	0.0507484
366.0000	0.051116
365.5000	0.051688
365.0000	0.0520974
364.5000	0.0526767
364.0000	0.0531172
363.5000	0.0537381
363.0000	0.0541605
362.5000	0.0548579
362.0000	0.0553082
361.5000	0.05602
361.0000	0.0565023
360.5000	0.0571667
360.0000	0.0576416
359.5000	0.0582344
359.0000	0.0587181
358.5000	0.0593833
358.0000	0.0599048
357.5000	0.0606269
357.0000	0.0610582
356.5000	0.061855
356.0000	0.0624199
355.5000	0.0631584
355.0000	0.0636529
354.5000	0.0644147
354.0000	0.0650437
353.5000	0.065871
353.0000	0.0664625
352.5000	0.0672521
352.0000	0.0678734
351.5000	0.0686942
351.0000	0.0692708
350.5000	0.0702077
350.0000	0.0708353
349.5000	0.0716312
349.0000	0.0723115
348.5000	0.0732691
348.0000	0.0739367
347.5000	0.0748875
347.0000	0.0755973
346.5000	0.0766992
346.0000	0.077432
345.5000	0.0784812
345.0000	0.0792305
344.5000	0.0804108
344.0000	0.0812359
343.5000	0.0825222
343.0000	0.0834176
342.5000	0.0846903
342.0000	0.0857098
341.5000	0.0872559
341.0000	0.088292
340.5000	0.089803
340.0000	0.0917187
339.5000	0.0934566
339.0000	0.0947018
338.5000	0.0967075
338.0000	0.0980547
337.5000	0.100276
337.0000	0.101881
336.5000	0.104297
336.0000	0.105937
335.5000	0.108666
335.0000	0.110574
334.5000	0.113539
334.0000	0.115642
333.5000	0.119024
333.0000	0.121397
332.5000	0.125241
332.0000	0.127951
331.5000	0.132197
331.0000	0.13515
330.5000	0.139817
330.0000	0.143161
329.5000	0.148551
329.0000	0.152289
328.5000	0.158268
328.0000	0.16251
327.5000	0.169202
327.0000	0.173949
326.5000	0.181431
326.0000	0.18672
325.5000	0.19497
325.0000	0.200836
324.5000	0.210181
324.0000	0.216786
323.5000	0.227189
323.0000	0.234414
322.5000	0.245944
322.0000	0.25407
321.5000	0.266784
321.0000	0.275776
320.5000	0.289893
320.0000	0.299833
319.5000	0.315488
319.0000	0.326533
318.5000	0.343891
318.0000	0.356181
317.5000	0.375364
317.0000	0.388759
316.5000	0.409831
316.0000	0.42453
315.5000	0.447561
315.0000	0.463706
314.5000	0.488855
314.0000	0.506337
313.5000	0.533729
313.0000	0.55275
312.5000	0.582456
312.0000	0.603012
311.5000	0.634987
311.0000	0.657192
310.5000	0.691798
310.0000	0.71572
309.5000	0.752912
309.0000	0.778721
308.5000	0.818773
308.0000	0.846482
307.5000	0.889602
307.0000	0.919173
306.5000	0.965307
306.0000	0.997015
305.5000	1.04635
305.0000	1.08026
304.5000	1.13286
304.0000	1.16903
303.5000	1.22506
303.0000	1.26355
302.5000	1.32286
302.0000	1.3638
301.5000	1.42679
301.0000	1.46986
300.5000	1.53656
300.0000	1.58215

##### Extended Information
[コメント情報]
試料名
コメント
測定者
所属
会社	関西大学　化学生命工学部

[データ情報]
作成日時	2014/05/19 23:32

データタイプ	等間隔データ
横軸	Wavelength [nm]
縦軸	Abs
スタート	700 nm
エンド	300 nm
データ間隔	0.5 nm
データ数	801     

[測定情報]
装置名	V-670
機種名	V-670
シリアル番号	B118261154

付属品名	USE-753
付属品シリアルNo.	B118261154
  セル長	0.1 mm

測定日時	2014/05/19 23:32

測光モード	Abs
測定範囲	700 - 300 nm
データ取込間隔	0.5 nm
UV/Vis バンド幅	1.0 nm
NIR バンド幅	8.0 nm
レスポンス	Medium
走査速度	400 nm/min
光源切換	340 nm
回折格子切換	850 nm
光源	D2/WI
フィルタ切換	ステップ
補正	ベースライン

