TITLE	
DATA TYPE	ULTRAVIOLET SPECTRUM
ORIGIN	JASCO
OWNER	
DATE	14/05/09
TIME	00:13:04
SPECTROMETER/DATA SYSTEM	
LOCALE	1041
RESOLUTION	
DELTAX	-0.5
XUNITS	NANOMETERS
YUNITS	ABSORBANCE
FIRSTX	  700.0000
LASTX	  300.0000
NPOINTS	     801
FIRSTY	     0.00364
MAXY	     0.26794
MINY	     0.00364
XYDATA
700.0000	0.00364422
699.5000	0.00363764
699.0000	0.00363524
698.5000	0.00365832
698.0000	0.00365496
697.5000	0.00365689
697.0000	0.00366359
696.5000	0.00367038
696.0000	0.00367778
695.5000	0.00367161
695.0000	0.0036884
694.5000	0.00370846
694.0000	0.00370882
693.5000	0.00369314
693.0000	0.00370236
692.5000	0.00371626
692.0000	0.00371532
691.5000	0.00370088
691.0000	0.00371165
690.5000	0.00371183
690.0000	0.0037176
689.5000	0.00371876
689.0000	0.00371966
688.5000	0.00370903
688.0000	0.0037244
687.5000	0.00372186
687.0000	0.00372294
686.5000	0.00372342
686.0000	0.00373444
685.5000	0.00375518
685.0000	0.00375569
684.5000	0.00374989
684.0000	0.00378249
683.5000	0.00380963
683.0000	0.00381532
682.5000	0.00383023
682.0000	0.00383274
681.5000	0.00382354
681.0000	0.00382035
680.5000	0.00384234
680.0000	0.00385903
679.5000	0.00384551
679.0000	0.00384224
678.5000	0.00386367
678.0000	0.00386382
677.5000	0.00381692
677.0000	0.00380881
676.5000	0.00378452
676.0000	0.00381452
675.5000	0.00383656
675.0000	0.00384196
674.5000	0.00383561
674.0000	0.00384802
673.5000	0.00386448
673.0000	0.00385744
672.5000	0.00387562
672.0000	0.0038791
671.5000	0.00388839
671.0000	0.00391966
670.5000	0.00392487
670.0000	0.00393412
669.5000	0.00393047
669.0000	0.00392633
668.5000	0.00394603
668.0000	0.00395988
667.5000	0.00396864
667.0000	0.00395694
666.5000	0.00396414
666.0000	0.00396377
665.5000	0.00397411
665.0000	0.00399949
664.5000	0.00400472
664.0000	0.00404147
663.5000	0.00406435
663.0000	0.00407781
662.5000	0.00409436
662.0000	0.00411786
661.5000	0.00411989
661.0000	0.00412698
660.5000	0.0041535
660.0000	0.00418751
659.5000	0.00421078
659.0000	0.00421834
658.5000	0.00423513
658.0000	0.00425375
657.5000	0.00424231
657.0000	0.004255
656.5000	0.00427227
656.0000	0.00429624
655.5000	0.00432425
655.0000	0.00434036
654.5000	0.00438631
654.0000	0.00441354
653.5000	0.00443692
653.0000	0.00445439
652.5000	0.00447643
652.0000	0.00450935
651.5000	0.0045402
651.0000	0.00456072
650.5000	0.00460716
650.0000	0.0046368
649.5000	0.00465857
649.0000	0.00468412
648.5000	0.00472625
648.0000	0.00473894
647.5000	0.00477932
647.0000	0.00480298
646.5000	0.00484551
646.0000	0.00487955
645.5000	0.00492767
645.0000	0.00493498
644.5000	0.00497514
644.0000	0.00499253
643.5000	0.00505778
643.0000	0.00508673
642.5000	0.00510575
642.0000	0.00512561
641.5000	0.00517886
641.0000	0.0051911
640.5000	0.00521912
640.0000	0.00524941
639.5000	0.0053055
639.0000	0.00533105
638.5000	0.00538223
638.0000	0.00541891
637.5000	0.00547017
637.0000	0.00550325
636.5000	0.00556395
636.0000	0.00558442
635.5000	0.00564529
635.0000	0.00567853
634.5000	0.00575958
634.0000	0.00577601
633.5000	0.0058366
633.0000	0.0058612
632.5000	0.00593307
632.0000	0.00596449
631.5000	0.00602818
631.0000	0.00607112
630.5000	0.00611815
630.0000	0.00614726
629.5000	0.00625246
629.0000	0.00631385
628.5000	0.00635918
628.0000	0.00639485
627.5000	0.00648993
627.0000	0.00655023
626.5000	0.00663826
626.0000	0.00666772
625.5000	0.00677064
625.0000	0.00682005
624.5000	0.00689178
624.0000	0.00695235
623.5000	0.00705424
623.0000	0.00708913
622.5000	0.00715374
622.0000	0.00720288
621.5000	0.00730182
621.0000	0.00734847
620.5000	0.00740562
620.0000	0.0074665
619.5000	0.00756891
619.0000	0.00762304
618.5000	0.00773143
618.0000	0.00779747
617.5000	0.00790118
617.0000	0.00797576
616.5000	0.00808458
616.0000	0.00815204
615.5000	0.00827805
615.0000	0.00835599
614.5000	0.00847482
614.0000	0.00856997
613.5000	0.00867778
613.0000	0.00876638
612.5000	0.00887702
612.0000	0.00894135
611.5000	0.00906841
611.0000	0.00914075
610.5000	0.00926026
610.0000	0.00933104
609.5000	0.00947678
609.0000	0.00956403
608.5000	0.00968798
608.0000	0.00977237
607.5000	0.00991623
607.0000	0.0100153
606.5000	0.0101471
606.0000	0.0102429
605.5000	0.0103985
605.0000	0.0104947
604.5000	0.010634
604.0000	0.0107241
603.5000	0.0108935
603.0000	0.0110074
602.5000	0.0111948
602.0000	0.0112994
601.5000	0.0114624
601.0000	0.0115817
600.5000	0.0117852
600.0000	0.0117817
599.5000	0.011989
599.0000	0.0121311
598.5000	0.0123147
598.0000	0.0124486
597.5000	0.0126697
597.0000	0.0128365
596.5000	0.0130566
596.0000	0.0132076
595.5000	0.0134416
595.0000	0.0136003
594.5000	0.0138736
594.0000	0.0140428
593.5000	0.0143002
593.0000	0.0144677
592.5000	0.0147319
592.0000	0.0149309
591.5000	0.0152089
591.0000	0.0153956
590.5000	0.0156758
590.0000	0.0158971
589.5000	0.0161996
589.0000	0.0163914
588.5000	0.0167172
588.0000	0.016939
587.5000	0.0172647
587.0000	0.0174816
586.5000	0.0178334
586.0000	0.0180753
585.5000	0.0184026
585.0000	0.0186606
584.5000	0.0190265
584.0000	0.0193016
583.5000	0.0196848
583.0000	0.0199504
582.5000	0.0203886
582.0000	0.020668
581.5000	0.0210927
581.0000	0.0213907
580.5000	0.0218493
580.0000	0.0221595
579.5000	0.0226161
579.0000	0.0229423
578.5000	0.0234427
578.0000	0.0237849
577.5000	0.0243134
577.0000	0.0246607
576.5000	0.0251941
576.0000	0.0255463
575.5000	0.0261031
575.0000	0.0264638
574.5000	0.0270389
574.0000	0.0274302
573.5000	0.0280453
573.0000	0.0284542
572.5000	0.0290816
572.0000	0.0295419
571.5000	0.0301881
571.0000	0.0306093
570.5000	0.0312949
570.0000	0.0317719
569.5000	0.0324736
569.0000	0.032974
568.5000	0.0337198
568.0000	0.0342237
567.5000	0.0350028
567.0000	0.0355151
566.5000	0.0363081
566.0000	0.036844
565.5000	0.0376408
565.0000	0.0381785
564.5000	0.0390064
564.0000	0.0395602
563.5000	0.0403904
563.0000	0.040957
562.5000	0.0418008
562.0000	0.0423823
561.5000	0.0432561
561.0000	0.043827
560.5000	0.0447239
560.0000	0.0453315
559.5000	0.0462495
559.0000	0.0468445
558.5000	0.0477638
558.0000	0.0484034
557.5000	0.049362
557.0000	0.050003
556.5000	0.0509806
556.0000	0.0516432
555.5000	0.0525914
555.0000	0.05323
554.5000	0.0541886
554.0000	0.0548604
553.5000	0.0558305
553.0000	0.0564628
552.5000	0.0574344
552.0000	0.0580865
551.5000	0.05905
551.0000	0.0596408
550.5000	0.0605792
550.0000	0.061198
549.5000	0.0621266
549.0000	0.062724
548.5000	0.0636189
548.0000	0.0642049
547.5000	0.0650282
547.0000	0.0655857
546.5000	0.0663959
546.0000	0.0669325
545.5000	0.0677197
545.0000	0.0682181
544.5000	0.0689478
544.0000	0.0694213
543.5000	0.0700922
543.0000	0.0705007
542.5000	0.0710997
542.0000	0.0714991
541.5000	0.0720622
541.0000	0.0724102
540.5000	0.0728658
540.0000	0.0731813
539.5000	0.0735911
539.0000	0.0738217
538.5000	0.0741284
538.0000	0.0743399
537.5000	0.0746015
537.0000	0.0747435
536.5000	0.074923
536.0000	0.0750445
535.5000	0.0751807
535.0000	0.0752246
534.5000	0.0752598
534.0000	0.0752509
533.5000	0.0752128
533.0000	0.0751653
532.5000	0.075052
532.0000	0.0749652
531.5000	0.0747636
531.0000	0.0746232
530.5000	0.0743847
530.0000	0.0742105
529.5000	0.0738778
529.0000	0.0736636
528.5000	0.0733196
528.0000	0.0730622
527.5000	0.0726625
527.0000	0.0723791
526.5000	0.0719147
526.0000	0.0716006
525.5000	0.0711004
525.0000	0.0707807
524.5000	0.0702227
524.0000	0.069861
523.5000	0.0692808
523.0000	0.0688739
522.5000	0.0682637
522.0000	0.0678287
521.5000	0.0671822
521.0000	0.0667655
520.5000	0.0660778
520.0000	0.0656755
519.5000	0.0649807
519.0000	0.0645122
518.5000	0.0638455
518.0000	0.0633663
517.5000	0.06263
517.0000	0.062176
516.5000	0.0614551
516.0000	0.0609684
515.5000	0.0602328
515.0000	0.0597403
514.5000	0.05899
514.0000	0.0584898
513.5000	0.0577457
513.0000	0.0572657
512.5000	0.0565329
512.0000	0.0560315
511.5000	0.0553254
511.0000	0.0548492
510.5000	0.0541282
510.0000	0.0536484
509.5000	0.0529049
509.0000	0.0524325
508.5000	0.0517611
508.0000	0.0512962
507.5000	0.0505716
507.0000	0.0500855
506.5000	0.0494122
506.0000	0.0489596
505.5000	0.0482568
505.0000	0.0477789
504.5000	0.0471027
504.0000	0.0466587
503.5000	0.0459671
503.0000	0.0455275
502.5000	0.0448864
502.0000	0.0444465
501.5000	0.0437816
501.0000	0.0433456
500.5000	0.0427395
500.0000	0.0422927
499.5000	0.041658
499.0000	0.0412243
498.5000	0.0405975
498.0000	0.0401925
497.5000	0.039602
497.0000	0.0392159
496.5000	0.0386271
496.0000	0.0382
495.5000	0.0376116
495.0000	0.0372286
494.5000	0.0366613
494.0000	0.036281
493.5000	0.0356999
493.0000	0.0353367
492.5000	0.0348101
492.0000	0.0344508
491.5000	0.0338959
491.0000	0.0335295
490.5000	0.0329875
490.0000	0.0326428
489.5000	0.032114
489.0000	0.0317598
488.5000	0.0312537
488.0000	0.0309343
487.5000	0.0304434
487.0000	0.0301365
486.5000	0.0296726
486.0000	0.0293614
485.5000	0.0288782
485.0000	0.0285978
484.5000	0.0281762
484.0000	0.027889
483.5000	0.0274779
483.0000	0.0272219
482.5000	0.0268223
482.0000	0.0265733
481.5000	0.0261958
481.0000	0.0259531
480.5000	0.025595
480.0000	0.0253778
479.5000	0.0250605
479.0000	0.0248621
478.5000	0.0245795
478.0000	0.0244124
477.5000	0.02419
477.0000	0.0240377
476.5000	0.0238692
476.0000	0.0237543
475.5000	0.0236245
475.0000	0.0235494
474.5000	0.0234812
474.0000	0.0234456
473.5000	0.0234243
473.0000	0.023436
472.5000	0.0234995
472.0000	0.023538
471.5000	0.0236647
471.0000	0.0237765
470.5000	0.0240193
470.0000	0.0242132
469.5000	0.0245551
469.0000	0.0248248
468.5000	0.0253049
468.0000	0.0256708
467.5000	0.0263393
467.0000	0.0268548
466.5000	0.0277198
466.0000	0.0283842
465.5000	0.0295177
465.0000	0.0303334
464.5000	0.0317214
464.0000	0.0327513
463.5000	0.0344653
463.0000	0.0357031
462.5000	0.0377899
462.0000	0.0393182
461.5000	0.0417975
461.0000	0.0435814
460.5000	0.0464809
460.0000	0.0485649
459.5000	0.0519563
459.0000	0.0543262
458.5000	0.0581481
458.0000	0.0608486
457.5000	0.0651169
457.0000	0.0680649
456.5000	0.0726625
456.0000	0.0758339
455.5000	0.080673
455.0000	0.0839307
454.5000	0.0888148
454.0000	0.0920301
453.5000	0.0967079
453.0000	0.0996938
452.5000	0.103932
452.0000	0.106565
451.5000	0.110205
451.0000	0.112358
450.5000	0.11519
450.0000	0.116807
449.5000	0.118725
449.0000	0.119685
448.5000	0.120619
448.0000	0.120975
447.5000	0.12106
447.0000	0.120845
446.5000	0.120145
446.0000	0.11942
445.5000	0.118004
445.0000	0.116859
444.5000	0.114897
444.0000	0.113415
443.5000	0.111038
443.0000	0.109338
442.5000	0.10666
442.0000	0.104832
441.5000	0.102007
441.0000	0.100092
440.5000	0.0972311
440.0000	0.0953339
439.5000	0.0925839
439.0000	0.0907832
438.5000	0.0881689
438.0000	0.0865241
437.5000	0.0842725
437.0000	0.0828332
436.5000	0.0809496
436.0000	0.0797972
435.5000	0.0783644
435.0000	0.0775356
434.5000	0.0765983
434.0000	0.076159
433.5000	0.0758059
433.0000	0.0757173
432.5000	0.0758987
432.0000	0.0762337
431.5000	0.0770097
431.0000	0.0776757
430.5000	0.0789196
430.0000	0.0799237
429.5000	0.081656
429.0000	0.0828681
428.5000	0.0848851
428.0000	0.0862453
427.5000	0.0884029
427.0000	0.0898127
426.5000	0.0919314
426.0000	0.093335
425.5000	0.0953088
425.0000	0.0965055
424.5000	0.0981332
424.0000	0.0990613
423.5000	0.100242
423.0000	0.100823
422.5000	0.101448
422.0000	0.101677
421.5000	0.101797
421.0000	0.101647
420.5000	0.101118
420.0000	0.100726
419.5000	0.0996528
419.0000	0.0987609
418.5000	0.0972526
418.0000	0.0960455
417.5000	0.0941642
417.0000	0.0927761
416.5000	0.090532
416.0000	0.0889755
415.5000	0.0865445
415.0000	0.084929
414.5000	0.0824192
414.0000	0.080721
413.5000	0.0782877
413.0000	0.0766839
412.5000	0.0743119
412.0000	0.0727695
411.5000	0.0705474
411.0000	0.0691164
410.5000	0.067156
410.0000	0.0659288
409.5000	0.0642246
409.0000	0.0632267
408.5000	0.061816
408.0000	0.0609854
407.5000	0.0599103
407.0000	0.0593169
406.5000	0.0585515
406.0000	0.0581175
405.5000	0.0576085
405.0000	0.0573847
404.5000	0.0571835
404.0000	0.057049
403.5000	0.056967
403.0000	0.0569707
402.5000	0.0569473
402.0000	0.0569749
401.5000	0.0570068
401.0000	0.0570269
400.5000	0.0570006
400.0000	0.056938
399.5000	0.0568135
399.0000	0.0567055
398.5000	0.0564246
398.0000	0.0561587
397.5000	0.0557402
397.0000	0.0553312
396.5000	0.0546532
396.0000	0.0541722
395.5000	0.0533502
395.0000	0.0527436
394.5000	0.0518076
394.0000	0.0510945
393.5000	0.050037
393.0000	0.0492775
392.5000	0.0481715
392.0000	0.0474063
391.5000	0.04628
391.0000	0.0455384
390.5000	0.0444494
390.0000	0.0437213
389.5000	0.0426474
389.0000	0.0419774
388.5000	0.0409712
388.0000	0.0403557
387.5000	0.0395381
387.0000	0.0390155
386.5000	0.038303
386.0000	0.0378577
385.5000	0.0372387
385.0000	0.0368419
384.5000	0.0363199
384.0000	0.0360362
383.5000	0.0356913
383.0000	0.0354862
382.5000	0.0352338
382.0000	0.0350737
381.5000	0.0348258
381.0000	0.034666
380.5000	0.0344505
380.0000	0.0343591
379.5000	0.0342345
379.0000	0.0340883
378.5000	0.0339154
378.0000	0.0338814
377.5000	0.0336835
377.0000	0.0335635
376.5000	0.0333606
376.0000	0.0332608
375.5000	0.0331085
375.0000	0.0329434
374.5000	0.0327235
374.0000	0.0325799
373.5000	0.0323221
373.0000	0.0321263
372.5000	0.0318942
372.0000	0.0317492
371.5000	0.0314642
371.0000	0.0313161
370.5000	0.0310386
370.0000	0.0308914
369.5000	0.0306925
369.0000	0.0305525
368.5000	0.0303418
368.0000	0.0302047
367.5000	0.030001
367.0000	0.0299038
366.5000	0.0297466
366.0000	0.0296866
365.5000	0.0296134
365.0000	0.0295634
364.5000	0.0294868
364.0000	0.0294227
363.5000	0.0293674
363.0000	0.029312
362.5000	0.0292018
362.0000	0.0291778
361.5000	0.0291828
361.0000	0.0291866
360.5000	0.0291892
360.0000	0.0291354
359.5000	0.029088
359.0000	0.0290579
358.5000	0.0290476
358.0000	0.0290084
357.5000	0.0290093
357.0000	0.0289918
356.5000	0.0289651
356.0000	0.0289555
355.5000	0.0289333
355.0000	0.0288971
354.5000	0.0287648
354.0000	0.0287369
353.5000	0.0286775
353.0000	0.0286285
352.5000	0.0285096
352.0000	0.0284166
351.5000	0.0283512
351.0000	0.0283028
350.5000	0.0282744
350.0000	0.0282323
349.5000	0.0282343
349.0000	0.0281945
348.5000	0.0281573
348.0000	0.0281041
347.5000	0.0281077
347.0000	0.0280785
346.5000	0.0280097
346.0000	0.0280325
345.5000	0.0280077
345.0000	0.0280096
344.5000	0.0280107
344.0000	0.0279415
343.5000	0.0278413
343.0000	0.0277615
342.5000	0.0277665
342.0000	0.0277974
341.5000	0.0278157
341.0000	0.0277819
340.5000	0.027913
340.0000	0.0277962
339.5000	0.0278258
339.0000	0.0278529
338.5000	0.0278785
338.0000	0.0279337
337.5000	0.0279492
337.0000	0.0280252
336.5000	0.0280726
336.0000	0.0282332
335.5000	0.0283488
335.0000	0.0284112
334.5000	0.0287292
334.0000	0.0288339
333.5000	0.0290205
333.0000	0.0291879
332.5000	0.0295703
332.0000	0.0298415
331.5000	0.0302564
331.0000	0.030577
330.5000	0.0309762
330.0000	0.0312694
329.5000	0.0317625
329.0000	0.0321399
328.5000	0.0326764
328.0000	0.0330463
327.5000	0.0337986
327.0000	0.0343396
326.5000	0.0350983
326.0000	0.0355749
325.5000	0.0364613
325.0000	0.0370044
324.5000	0.0380737
324.0000	0.0388114
323.5000	0.0400142
323.0000	0.0408256
322.5000	0.0421975
322.0000	0.0432438
321.5000	0.0449054
321.0000	0.0459288
320.5000	0.0477266
320.0000	0.049024
319.5000	0.051107
319.0000	0.05255
318.5000	0.054924
318.0000	0.056596
317.5000	0.0592762
317.0000	0.0611085
316.5000	0.0640359
316.0000	0.0661311
315.5000	0.0694799
315.0000	0.0717455
314.5000	0.0754371
314.0000	0.078054
313.5000	0.0821834
313.0000	0.0849766
312.5000	0.0895448
312.0000	0.0927605
311.5000	0.0976849
311.0000	0.101092
310.5000	0.106636
310.0000	0.110463
309.5000	0.116469
309.0000	0.120651
308.5000	0.127329
308.0000	0.131985
307.5000	0.139253
307.0000	0.144249
306.5000	0.152305
306.0000	0.157853
305.5000	0.166666
305.0000	0.17276
304.5000	0.182297
304.0000	0.188877
303.5000	0.19929
303.0000	0.206475
302.5000	0.217691
302.0000	0.225448
301.5000	0.237601
301.0000	0.245939
300.5000	0.258937
300.0000	0.267943

##### Extended Information
[コメント情報]
試料名
コメント
測定者
所属
会社	関西大学　化学生命工学部

[データ情報]
作成日時	2014/05/09 0:13

データタイプ	等間隔データ
横軸	Wavelength [nm]
縦軸	Abs
スタート	700 nm
エンド	300 nm
データ間隔	0.5 nm
データ数	801     

[測定情報]
装置名	V-670
機種名	V-670
シリアル番号	B118261154

付属品名	USE-753
付属品シリアルNo.	B118261154
  セル長	0.1 mm

測定日時	2014/05/09 0:12

測光モード	Abs
測定範囲	700 - 300 nm
データ取込間隔	0.5 nm
UV/Vis バンド幅	1.0 nm
NIR バンド幅	8.0 nm
レスポンス	Medium
走査速度	400 nm/min
光源切換	340 nm
回折格子切換	850 nm
光源	D2/WI
フィルタ切換	ステップ
補正	ベースライン

