TITLE	
DATA TYPE	ULTRAVIOLET SPECTRUM
ORIGIN	JASCO
OWNER	
DATE	14/04/15
TIME	17:38:57
SPECTROMETER/DATA SYSTEM	
LOCALE	1041
RESOLUTION	
DELTAX	-0.5
XUNITS	NANOMETERS
YUNITS	ABSORBANCE
FIRSTX	  700.0000
LASTX	  300.0000
NPOINTS	     801
FIRSTY	     0.00281
MAXY	     0.85178
MINY	     0.00278
XYDATA
700.0000	0.00281168
699.5000	0.00282991
699.0000	0.00281341
698.5000	0.00282387
698.0000	0.0028192
697.5000	0.00285522
697.0000	0.00284561
696.5000	0.00281638
696.0000	0.00282177
695.5000	0.00281275
695.0000	0.00281884
694.5000	0.00284299
694.0000	0.00283031
693.5000	0.00283897
693.0000	0.00280946
692.5000	0.00279009
692.0000	0.00278037
691.5000	0.00279424
691.0000	0.0027779
690.5000	0.00278329
690.0000	0.00278078
689.5000	0.0027842
689.0000	0.00279267
688.5000	0.00277851
688.0000	0.00278197
687.5000	0.00280355
687.0000	0.00279702
686.5000	0.0027938
686.0000	0.00281538
685.5000	0.00282011
685.0000	0.00281571
684.5000	0.00279444
684.0000	0.00281078
683.5000	0.00282438
683.0000	0.00283867
682.5000	0.00282005
682.0000	0.00283533
681.5000	0.0028588
681.0000	0.00284774
680.5000	0.00287131
680.0000	0.00288503
679.5000	0.00291746
679.0000	0.00292009
678.5000	0.00292796
678.0000	0.00292406
677.5000	0.00294115
677.0000	0.00293729
676.5000	0.00297095
676.0000	0.00297449
675.5000	0.00298858
675.0000	0.00300291
674.5000	0.00303984
674.0000	0.00302991
673.5000	0.00304695
673.0000	0.00304897
672.5000	0.00305579
672.0000	0.0030811
671.5000	0.00313792
671.0000	0.00316039
670.5000	0.00315907
670.0000	0.00316647
669.5000	0.00318653
669.0000	0.00318831
668.5000	0.00319569
668.0000	0.00321766
667.5000	0.00325111
667.0000	0.00324542
666.5000	0.00328962
666.0000	0.00332627
665.5000	0.00334734
665.0000	0.00333887
664.5000	0.00337608
664.0000	0.00340763
663.5000	0.00345153
663.0000	0.00345584
662.5000	0.00351954
662.0000	0.00355091
661.5000	0.00359972
661.0000	0.00360971
660.5000	0.00366946
660.0000	0.00369715
659.5000	0.00375065
659.0000	0.00376952
658.5000	0.00384158
658.0000	0.00386005
657.5000	0.00388174
657.0000	0.00392393
656.5000	0.00398397
656.0000	0.00399518
655.5000	0.00403218
655.0000	0.00406357
654.5000	0.00414098
654.0000	0.00420627
653.5000	0.00424768
653.0000	0.00428075
652.5000	0.00436225
652.0000	0.00439839
651.5000	0.00447456
651.0000	0.00454212
650.5000	0.00461174
650.0000	0.0046761
649.5000	0.0047365
649.0000	0.00477985
648.5000	0.00486828
648.0000	0.0049078
647.5000	0.00496528
647.0000	0.00502965
646.5000	0.00513625
646.0000	0.00519659
645.5000	0.00527871
645.0000	0.00532704
644.5000	0.0054306
644.0000	0.00546345
643.5000	0.00553731
643.0000	0.0056266
642.5000	0.00573461
642.0000	0.0057973
641.5000	0.0059013
641.0000	0.00594816
640.5000	0.00603426
640.0000	0.00610959
639.5000	0.00618574
639.0000	0.00626902
638.5000	0.00638352
638.0000	0.00646946
637.5000	0.00658386
637.0000	0.00668119
636.5000	0.00681338
636.0000	0.00689616
635.5000	0.00700936
635.0000	0.00710822
634.5000	0.00724021
634.0000	0.00732972
633.5000	0.00744096
633.0000	0.00754214
632.5000	0.0076812
632.0000	0.00776797
631.5000	0.00790051
631.0000	0.00798802
630.5000	0.00813828
630.0000	0.00823014
629.5000	0.00838896
629.0000	0.00850772
628.5000	0.00865294
628.0000	0.00876107
627.5000	0.00893326
627.0000	0.00904814
626.5000	0.00922758
626.0000	0.00932876
625.5000	0.00947791
625.0000	0.00959705
624.5000	0.00978693
624.0000	0.00990041
623.5000	0.0100632
623.0000	0.0101935
622.5000	0.0103786
622.0000	0.0105062
621.5000	0.0106854
621.0000	0.010824
620.5000	0.0110286
620.0000	0.0111818
619.5000	0.0114132
619.0000	0.0115753
618.5000	0.0118158
618.0000	0.0119715
617.5000	0.0122
617.0000	0.0123574
616.5000	0.0125864
616.0000	0.0127546
615.5000	0.0130119
615.0000	0.013223
614.5000	0.0134847
614.0000	0.0136513
613.5000	0.0139047
613.0000	0.014093
612.5000	0.0143716
612.0000	0.0145501
611.5000	0.0148438
611.0000	0.0150576
610.5000	0.015354
610.0000	0.0155814
609.5000	0.0158788
609.0000	0.0160852
608.5000	0.0163819
608.0000	0.0165838
607.5000	0.0169054
607.0000	0.0171258
606.5000	0.0174678
606.0000	0.0177018
605.5000	0.0180633
605.0000	0.01831
604.5000	0.0186918
604.0000	0.0189492
603.5000	0.0193429
603.0000	0.0196034
602.5000	0.0200146
602.0000	0.0202938
601.5000	0.0207176
601.0000	0.0209976
600.5000	0.0214234
600.0000	0.0217558
599.5000	0.0221843
599.0000	0.0224972
598.5000	0.0229408
598.0000	0.0232481
597.5000	0.0237561
597.0000	0.0240828
596.5000	0.0245779
596.0000	0.0249308
595.5000	0.0254635
595.0000	0.0258177
594.5000	0.0263841
594.0000	0.026749
593.5000	0.0273248
593.0000	0.0277112
592.5000	0.0283187
592.0000	0.0287549
591.5000	0.0293837
591.0000	0.0298044
590.5000	0.0304494
590.0000	0.030912
589.5000	0.0315899
589.0000	0.0320616
588.5000	0.0327822
588.0000	0.0332611
587.5000	0.0339747
587.0000	0.0344816
586.5000	0.0352674
586.0000	0.0357866
585.5000	0.036562
585.0000	0.0370973
584.5000	0.0379042
584.0000	0.0384855
583.5000	0.0393144
583.0000	0.0399056
582.5000	0.0407864
582.0000	0.0413976
581.5000	0.0423317
581.0000	0.0429805
580.5000	0.0439397
580.0000	0.0446189
579.5000	0.0456301
579.0000	0.0463219
578.5000	0.0473508
578.0000	0.0481112
577.5000	0.0491683
577.0000	0.0499004
576.5000	0.0509837
576.0000	0.0517501
575.5000	0.0528857
575.0000	0.0536604
574.5000	0.054842
574.0000	0.0556605
573.5000	0.0568551
573.0000	0.0576914
572.5000	0.0589611
572.0000	0.0598549
571.5000	0.061174
571.0000	0.0621048
570.5000	0.0635033
570.0000	0.0644377
569.5000	0.0658614
569.0000	0.0668457
568.5000	0.0683115
568.0000	0.0693207
567.5000	0.0708349
567.0000	0.0718473
566.5000	0.0733621
566.0000	0.0744172
565.5000	0.0760027
565.0000	0.0770485
564.5000	0.0786543
564.0000	0.079741
563.5000	0.0814003
563.0000	0.0825078
562.5000	0.0841783
562.0000	0.0853004
561.5000	0.0870198
561.0000	0.0881615
560.5000	0.0899354
560.0000	0.0911182
559.5000	0.0928781
559.0000	0.0940642
558.5000	0.0958642
558.0000	0.0970735
557.5000	0.0989127
557.0000	0.100134
556.5000	0.102015
556.0000	0.10324
555.5000	0.105099
555.0000	0.106307
554.5000	0.108165
554.0000	0.109389
553.5000	0.111261
553.0000	0.112488
552.5000	0.114307
552.0000	0.115535
551.5000	0.117337
551.0000	0.118509
550.5000	0.120266
550.0000	0.121416
549.5000	0.123155
549.0000	0.12431
548.5000	0.126019
548.0000	0.127147
547.5000	0.128812
547.0000	0.129885
546.5000	0.131449
546.0000	0.132486
545.5000	0.134012
545.0000	0.134993
544.5000	0.136442
544.0000	0.137385
543.5000	0.138745
543.0000	0.139616
542.5000	0.140862
542.0000	0.141652
541.5000	0.142771
541.0000	0.143488
540.5000	0.144516
540.0000	0.145177
539.5000	0.146114
539.0000	0.146671
538.5000	0.147424
538.0000	0.147884
537.5000	0.148512
537.0000	0.148907
536.5000	0.149411
536.0000	0.14972
535.5000	0.150102
535.0000	0.15031
534.5000	0.150531
534.0000	0.150599
533.5000	0.150669
533.0000	0.150682
532.5000	0.150608
532.0000	0.150539
531.5000	0.150382
531.0000	0.15022
530.5000	0.149903
530.0000	0.149627
529.5000	0.149163
529.0000	0.14884
528.5000	0.148303
528.0000	0.147875
527.5000	0.147224
527.0000	0.146731
526.5000	0.145914
526.0000	0.14536
525.5000	0.144453
525.0000	0.14382
524.5000	0.142796
524.0000	0.142087
523.5000	0.141008
523.0000	0.140254
522.5000	0.139041
522.0000	0.138216
521.5000	0.136976
521.0000	0.136124
520.5000	0.134816
520.0000	0.133927
519.5000	0.132528
519.0000	0.131594
518.5000	0.130188
518.0000	0.129264
517.5000	0.127803
517.0000	0.126837
516.5000	0.125354
516.0000	0.124384
515.5000	0.122892
515.0000	0.121934
514.5000	0.120483
514.0000	0.119499
513.5000	0.118011
513.0000	0.117035
512.5000	0.115557
512.0000	0.114587
511.5000	0.11311
511.0000	0.112148
510.5000	0.110706
510.0000	0.109767
509.5000	0.108309
509.0000	0.107371
508.5000	0.105934
508.0000	0.104972
507.5000	0.103579
507.0000	0.102654
506.5000	0.101274
506.0000	0.100365
505.5000	0.0989865
505.0000	0.098089
504.5000	0.0967101
504.0000	0.095832
503.5000	0.0944903
503.0000	0.0935966
502.5000	0.0922648
502.0000	0.0913938
501.5000	0.0901023
501.0000	0.0892175
500.5000	0.0879219
500.0000	0.0870625
499.5000	0.0857681
499.0000	0.0849122
498.5000	0.0836355
498.0000	0.0828234
497.5000	0.0815786
497.0000	0.0807434
496.5000	0.0795169
496.0000	0.0787143
495.5000	0.0774843
495.0000	0.0766657
494.5000	0.0754686
494.0000	0.074681
493.5000	0.0735097
493.0000	0.0727516
492.5000	0.0716337
492.0000	0.0708925
491.5000	0.0697349
491.0000	0.0689696
490.5000	0.0678932
490.0000	0.0671855
489.5000	0.0661091
489.0000	0.0653871
488.5000	0.0643447
488.0000	0.0636511
487.5000	0.0625953
487.0000	0.061893
486.5000	0.0608543
486.0000	0.0601769
485.5000	0.059183
485.0000	0.0585373
484.5000	0.057559
484.0000	0.0569161
483.5000	0.0559056
483.0000	0.0552801
482.5000	0.0543784
482.0000	0.053777
481.5000	0.0528965
481.0000	0.0523056
480.5000	0.0514555
480.0000	0.0508942
479.5000	0.0500775
479.0000	0.0495467
478.5000	0.0487868
478.0000	0.0482954
477.5000	0.0475985
477.0000	0.0471306
476.5000	0.0464677
476.0000	0.046046
475.5000	0.0454332
475.0000	0.0450211
474.5000	0.0445081
474.0000	0.0441666
473.5000	0.0436835
473.0000	0.0433571
472.5000	0.0429271
472.0000	0.0426538
471.5000	0.0423465
471.0000	0.0421252
470.5000	0.0418826
470.0000	0.0417421
469.5000	0.0415783
469.0000	0.0415202
468.5000	0.0415409
468.0000	0.0415738
467.5000	0.0417398
467.0000	0.0418906
466.5000	0.0422215
466.0000	0.042529
465.5000	0.043081
465.0000	0.0434797
464.5000	0.0442571
464.0000	0.0448504
463.5000	0.0458948
463.0000	0.0466956
462.5000	0.0480292
462.0000	0.0490114
461.5000	0.0506758
461.0000	0.051855
460.5000	0.0538848
460.0000	0.0553486
459.5000	0.0577171
459.0000	0.0593984
458.5000	0.0620848
458.0000	0.0639821
457.5000	0.0669199
457.0000	0.0689392
456.5000	0.0720095
456.0000	0.0740559
455.5000	0.0770993
455.0000	0.0790402
454.5000	0.0818557
454.0000	0.0835821
453.5000	0.0859774
453.0000	0.0873668
452.5000	0.0892681
452.0000	0.0903009
451.5000	0.0915116
451.0000	0.0921111
450.5000	0.0926592
450.0000	0.0928063
449.5000	0.0927431
449.0000	0.092474
448.5000	0.091893
448.0000	0.0913158
447.5000	0.0902348
447.0000	0.0893988
446.5000	0.0880104
446.0000	0.0869506
445.5000	0.0853156
445.0000	0.0841271
444.5000	0.0822699
444.0000	0.0810063
443.5000	0.0790524
443.0000	0.0777238
442.5000	0.0757383
442.0000	0.0744029
441.5000	0.0724481
441.0000	0.0711735
440.5000	0.0693264
440.0000	0.0680969
439.5000	0.0663623
439.0000	0.0652709
438.5000	0.0637713
438.0000	0.0628485
437.5000	0.0616369
437.0000	0.0609218
436.5000	0.0600161
436.0000	0.0594775
435.5000	0.0589599
435.0000	0.0586944
434.5000	0.0585325
434.0000	0.0585286
433.5000	0.0587762
433.0000	0.0590698
432.5000	0.0596743
432.0000	0.0602295
431.5000	0.061203
431.0000	0.0619252
430.5000	0.0631855
430.0000	0.0640983
429.5000	0.0655367
429.0000	0.0665031
428.5000	0.0680338
428.0000	0.0690315
427.5000	0.070471
427.0000	0.0713628
426.5000	0.0726063
426.0000	0.0733694
425.5000	0.0743107
425.0000	0.0748598
424.5000	0.0755569
424.0000	0.0758533
423.5000	0.0761048
423.0000	0.0761651
422.5000	0.0760557
422.0000	0.0758195
421.5000	0.075312
421.0000	0.0748391
420.5000	0.0739586
420.0000	0.0735619
419.5000	0.0724183
419.0000	0.0716022
418.5000	0.0702205
418.0000	0.0692369
417.5000	0.0677621
417.0000	0.0667427
416.5000	0.0650888
416.0000	0.0640287
415.5000	0.0624095
415.0000	0.0613428
414.5000	0.0597706
414.0000	0.0587422
413.5000	0.057213
413.0000	0.0562798
412.5000	0.0549572
412.0000	0.0541369
411.5000	0.0529885
411.0000	0.0522836
410.5000	0.0513102
410.0000	0.0507603
409.5000	0.0500386
409.0000	0.0495806
408.5000	0.0490493
408.0000	0.0488309
407.5000	0.0485592
407.0000	0.0484344
406.5000	0.0483285
406.0000	0.0483184
405.5000	0.0482997
405.0000	0.0483164
404.5000	0.0483767
404.0000	0.048525
403.5000	0.0487001
403.0000	0.0488333
402.5000	0.0491093
402.0000	0.0492461
401.5000	0.0493623
401.0000	0.0494087
400.5000	0.0494054
400.0000	0.0494348
399.5000	0.0494156
399.0000	0.0493634
398.5000	0.0492399
398.0000	0.049148
397.5000	0.0488672
397.0000	0.0486935
396.5000	0.0483302
396.0000	0.0480265
395.5000	0.0475746
395.0000	0.0472516
394.5000	0.0468193
394.0000	0.0465272
393.5000	0.0459773
393.0000	0.0456535
392.5000	0.0451889
392.0000	0.0449076
391.5000	0.0444651
391.0000	0.0441905
390.5000	0.0437993
390.0000	0.043565
389.5000	0.0432765
389.0000	0.0430807
388.5000	0.0428566
388.0000	0.0427544
387.5000	0.042632
387.0000	0.0425906
386.5000	0.0425765
386.0000	0.042572
385.5000	0.0426063
385.0000	0.0426535
384.5000	0.0428112
384.0000	0.0429546
383.5000	0.0432114
383.0000	0.0434069
382.5000	0.0437148
382.0000	0.0439175
381.5000	0.044293
381.0000	0.0445354
380.5000	0.0449025
380.0000	0.0451751
379.5000	0.0456076
379.0000	0.0459154
378.5000	0.0463081
378.0000	0.0466093
377.5000	0.0470316
377.0000	0.0473037
376.5000	0.0476573
376.0000	0.0479386
375.5000	0.0483396
375.0000	0.0485799
374.5000	0.0489662
374.0000	0.0492263
373.5000	0.0495892
373.0000	0.0498584
372.5000	0.0502699
372.0000	0.0505339
371.5000	0.0509527
371.0000	0.0512951
370.5000	0.0517365
370.0000	0.0522983
369.5000	0.0527433
369.0000	0.0530754
368.5000	0.0535977
368.0000	0.0539725
367.5000	0.0545089
367.0000	0.0548168
366.5000	0.0554826
366.0000	0.0557913
365.5000	0.0564128
365.0000	0.0568728
364.5000	0.0575756
364.0000	0.0579741
363.5000	0.0587704
363.0000	0.0592756
362.5000	0.059989
362.0000	0.0604696
361.5000	0.0611797
361.0000	0.0615907
360.5000	0.0622095
360.0000	0.0626595
359.5000	0.0634231
359.0000	0.0638126
358.5000	0.0645103
358.0000	0.0648855
357.5000	0.065465
357.0000	0.0657839
356.5000	0.0663235
356.0000	0.0667386
355.5000	0.0672679
355.0000	0.067607
354.5000	0.0681936
354.0000	0.0686401
353.5000	0.0690149
353.0000	0.0692765
352.5000	0.0697051
352.0000	0.0699333
351.5000	0.0703736
351.0000	0.0706267
350.5000	0.0710369
350.0000	0.0713424
349.5000	0.0716151
349.0000	0.071812
348.5000	0.0720717
348.0000	0.0722702
347.5000	0.0725367
347.0000	0.0728066
346.5000	0.0731319
346.0000	0.0733354
345.5000	0.0736152
345.0000	0.0737989
344.5000	0.0740857
344.0000	0.0743002
343.5000	0.0746773
343.0000	0.0749141
342.5000	0.0752589
342.0000	0.0755831
341.5000	0.0759337
341.0000	0.0761529
340.5000	0.0766225
340.0000	0.078123
339.5000	0.0786342
339.0000	0.0790026
338.5000	0.0796525
338.0000	0.0800575
337.5000	0.0808455
337.0000	0.0814312
336.5000	0.0822515
336.0000	0.0828692
335.5000	0.0838673
335.0000	0.0845395
334.5000	0.0856585
334.0000	0.0864213
333.5000	0.0877246
333.0000	0.0886467
332.5000	0.0901791
332.0000	0.0912467
331.5000	0.0929956
331.0000	0.0942165
330.5000	0.096209
330.0000	0.0976488
329.5000	0.0999965
329.0000	0.101596
328.5000	0.104278
328.0000	0.106142
327.5000	0.109103
327.0000	0.111185
326.5000	0.11463
326.0000	0.116943
325.5000	0.120673
325.0000	0.12336
324.5000	0.127624
324.0000	0.130623
323.5000	0.135326
323.0000	0.138752
322.5000	0.144135
322.0000	0.14784
321.5000	0.153794
321.0000	0.158021
320.5000	0.164768
320.0000	0.169455
319.5000	0.177014
319.0000	0.182313
318.5000	0.190672
318.0000	0.196529
317.5000	0.205819
317.0000	0.212295
316.5000	0.22246
316.0000	0.229676
315.5000	0.241071
315.0000	0.24904
314.5000	0.261505
314.0000	0.27016
313.5000	0.283852
313.0000	0.29337
312.5000	0.308375
312.0000	0.318809
311.5000	0.335145
311.0000	0.346591
310.5000	0.364531
310.0000	0.377011
309.5000	0.396513
309.0000	0.410038
308.5000	0.43122
308.0000	0.445855
307.5000	0.468746
307.0000	0.484649
306.5000	0.509581
306.0000	0.526747
305.5000	0.553529
305.0000	0.572101
304.5000	0.600907
304.0000	0.620836
303.5000	0.651733
303.0000	0.673037
302.5000	0.706151
302.0000	0.728908
301.5000	0.764319
301.0000	0.788581
300.5000	0.826043
300.0000	0.851777

##### Extended Information
[コメント情報]
試料名
コメント
測定者
所属
会社	関西大学　化学生命工学部

[データ情報]
作成日時	2014/04/15 17:38

データタイプ	等間隔データ
横軸	Wavelength [nm]
縦軸	Abs
スタート	700 nm
エンド	300 nm
データ間隔	0.5 nm
データ数	801     

[測定情報]
装置名	V-670
機種名	V-670
シリアル番号	B118261154

付属品名	USE-753
付属品シリアルNo.	B118261154
  セル長	0.1 mm

測定日時	2014/04/15 17:38

測光モード	Abs
測定範囲	700 - 300 nm
データ取込間隔	0.5 nm
UV/Vis バンド幅	1.0 nm
NIR バンド幅	8.0 nm
レスポンス	Medium
走査速度	400 nm/min
光源切換	340 nm
回折格子切換	850 nm
光源	D2/WI
フィルタ切換	ステップ
補正	ベースライン

