TITLE	
DATA TYPE	ULTRAVIOLET SPECTRUM
ORIGIN	JASCO
OWNER	
DATE	14/05/16
TIME	00:46:04
SPECTROMETER/DATA SYSTEM	
LOCALE	1041
RESOLUTION	
DELTAX	-0.5
XUNITS	NANOMETERS
YUNITS	ABSORBANCE
FIRSTX	  700.0000
LASTX	  300.0000
NPOINTS	     801
FIRSTY	     0.04052
MAXY	     0.99983
MINY	     0.03177
XYDATA
700.0000	0.0405231
699.5000	0.040393
699.0000	0.0403043
698.5000	0.040165
698.0000	0.0400793
697.5000	0.039951
697.0000	0.039834
696.5000	0.0396778
696.0000	0.03959
695.5000	0.0394429
695.0000	0.0393617
694.5000	0.0392055
694.0000	0.0391088
693.5000	0.0389612
693.0000	0.0388735
692.5000	0.0387111
692.0000	0.0386219
691.5000	0.0384666
691.0000	0.0383652
690.5000	0.0381993
690.0000	0.038085
689.5000	0.0379288
689.0000	0.03783
688.5000	0.0376581
688.0000	0.0375588
687.5000	0.0373908
687.0000	0.0372614
686.5000	0.0370894
686.0000	0.0369729
685.5000	0.0367953
685.0000	0.0366661
684.5000	0.0364817
684.0000	0.0363812
683.5000	0.0362144
683.0000	0.0360746
682.5000	0.0358901
682.0000	0.0358028
681.5000	0.0356434
681.0000	0.0355301
680.5000	0.0353938
680.0000	0.0352675
679.5000	0.0351226
679.0000	0.0350176
678.5000	0.0348869
678.0000	0.0347941
677.5000	0.0346399
677.0000	0.0345416
676.5000	0.0343998
676.0000	0.0343263
675.5000	0.0341704
675.0000	0.0340512
674.5000	0.0339198
674.0000	0.0338356
673.5000	0.0337199
673.0000	0.0336399
672.5000	0.0335113
672.0000	0.0334292
671.5000	0.0333198
671.0000	0.0332639
670.5000	0.0331464
670.0000	0.0331045
669.5000	0.0329756
669.0000	0.032911
668.5000	0.0328414
668.0000	0.0327852
667.5000	0.0326964
667.0000	0.0326266
666.5000	0.0325466
666.0000	0.0325087
665.5000	0.0324414
665.0000	0.0323921
664.5000	0.0323293
664.0000	0.0322813
663.5000	0.0322099
663.0000	0.0321758
662.5000	0.0321221
662.0000	0.0320748
661.5000	0.032012
661.0000	0.0319767
660.5000	0.031943
660.0000	0.0319206
659.5000	0.0318756
659.0000	0.031845
658.5000	0.0318098
658.0000	0.0317992
657.5000	0.0318075
657.0000	0.0317898
656.5000	0.0317773
656.0000	0.0317723
655.5000	0.0317764
655.0000	0.0317769
654.5000	0.03181
654.0000	0.0318068
653.5000	0.0318256
653.0000	0.0318491
652.5000	0.0318846
652.0000	0.0319091
651.5000	0.031924
651.0000	0.0319311
650.5000	0.0319712
650.0000	0.0320317
649.5000	0.0320831
649.0000	0.0321108
648.5000	0.0321838
648.0000	0.0322322
647.5000	0.0323034
647.0000	0.0323412
646.5000	0.0324228
646.0000	0.0324753
645.5000	0.0325545
645.0000	0.0326228
644.5000	0.0327222
644.0000	0.0327999
643.5000	0.0328694
643.0000	0.0329393
642.5000	0.0330726
642.0000	0.0331465
641.5000	0.0332468
641.0000	0.0333451
640.5000	0.0334924
640.0000	0.0335712
639.5000	0.0337277
639.0000	0.033819
638.5000	0.0339652
638.0000	0.034077
637.5000	0.0342308
637.0000	0.0343624
636.5000	0.0345513
636.0000	0.034665
635.5000	0.0348511
635.0000	0.0349716
634.5000	0.0351583
634.0000	0.0352938
633.5000	0.0354822
633.0000	0.03562
632.5000	0.0358654
632.0000	0.0360201
631.5000	0.0362665
631.0000	0.036423
630.5000	0.0366492
630.0000	0.0368073
629.5000	0.0370748
629.0000	0.0372725
628.5000	0.0375509
628.0000	0.0377194
627.5000	0.0379972
627.0000	0.0382062
626.5000	0.0384843
626.0000	0.0386609
625.5000	0.0389558
625.0000	0.0391583
624.5000	0.0394637
624.0000	0.0396581
623.5000	0.0399616
623.0000	0.0401919
622.5000	0.040477
622.0000	0.0406981
621.5000	0.041017
621.0000	0.0412343
620.5000	0.0415655
620.0000	0.041801
619.5000	0.0421537
619.0000	0.0423998
618.5000	0.0427524
618.0000	0.0429971
617.5000	0.0433837
617.0000	0.0436429
616.5000	0.0439891
616.0000	0.0442489
615.5000	0.0446391
615.0000	0.0449382
614.5000	0.0453306
614.0000	0.0455952
613.5000	0.045999
613.0000	0.0462827
612.5000	0.0466731
612.0000	0.0469373
611.5000	0.0473669
611.0000	0.047642
610.5000	0.048042
610.0000	0.0482962
609.5000	0.0487274
609.0000	0.0490055
608.5000	0.0493847
608.0000	0.0496745
607.5000	0.0501058
607.0000	0.0504081
606.5000	0.0508174
606.0000	0.0511067
605.5000	0.0515614
605.0000	0.0518334
604.5000	0.0522801
604.0000	0.0525611
603.5000	0.0530236
603.0000	0.053325
602.5000	0.0537841
602.0000	0.0541027
601.5000	0.0545567
601.0000	0.0548624
600.5000	0.0553084
600.0000	0.0559807
599.5000	0.0564376
599.0000	0.0567623
598.5000	0.0572574
598.0000	0.0575854
597.5000	0.0580637
597.0000	0.058394
596.5000	0.0589174
596.0000	0.0592717
595.5000	0.0597568
595.0000	0.0600916
594.5000	0.0606272
594.0000	0.0609794
593.5000	0.0615016
593.0000	0.0618832
592.5000	0.0624363
592.0000	0.0628423
591.5000	0.0634206
591.0000	0.0638314
590.5000	0.0644495
590.0000	0.0648643
589.5000	0.0654647
589.0000	0.0658985
588.5000	0.0665742
588.0000	0.0670284
587.5000	0.0677248
587.0000	0.0682057
586.5000	0.0689423
586.0000	0.0694534
585.5000	0.0702198
585.0000	0.0707292
584.5000	0.0715553
584.0000	0.0720999
583.5000	0.0729722
583.0000	0.0735446
582.5000	0.074447
582.0000	0.0750567
581.5000	0.0759867
581.0000	0.0765969
580.5000	0.077582
580.0000	0.0782467
579.5000	0.0792568
579.0000	0.0799365
578.5000	0.0810182
578.0000	0.0817524
577.5000	0.0828832
577.0000	0.0836624
576.5000	0.0848653
576.0000	0.0856989
575.5000	0.086961
575.0000	0.0878176
574.5000	0.0891379
574.0000	0.0900537
573.5000	0.0914558
573.0000	0.0924298
572.5000	0.0939188
572.0000	0.0949021
571.5000	0.0964668
571.0000	0.0975365
570.5000	0.0991454
570.0000	0.100264
569.5000	0.101979
569.0000	0.103138
568.5000	0.104926
568.0000	0.106166
567.5000	0.108059
567.0000	0.109338
566.5000	0.111292
566.0000	0.11262
565.5000	0.114707
565.0000	0.116073
564.5000	0.118173
564.0000	0.119609
563.5000	0.121848
563.0000	0.123345
562.5000	0.125626
562.0000	0.127189
561.5000	0.129554
561.0000	0.131149
560.5000	0.133589
560.0000	0.135241
559.5000	0.137754
559.0000	0.139444
558.5000	0.142055
558.0000	0.143823
557.5000	0.146483
557.0000	0.148256
556.5000	0.150975
556.0000	0.152817
555.5000	0.1556
555.0000	0.157443
554.5000	0.160241
554.0000	0.16212
553.5000	0.164991
553.0000	0.166906
552.5000	0.1698
552.0000	0.171753
551.5000	0.174669
551.0000	0.176623
550.5000	0.179544
550.0000	0.181507
549.5000	0.184461
549.0000	0.186424
548.5000	0.189389
548.0000	0.191353
547.5000	0.194349
547.0000	0.196335
546.5000	0.199319
546.0000	0.201293
545.5000	0.204242
545.0000	0.206203
544.5000	0.209172
544.0000	0.211142
543.5000	0.214081
543.0000	0.216043
542.5000	0.218978
542.0000	0.220917
541.5000	0.223815
541.0000	0.225739
540.5000	0.228587
540.0000	0.230439
539.5000	0.233247
539.0000	0.235088
538.5000	0.237823
538.0000	0.239596
537.5000	0.242257
537.0000	0.243998
536.5000	0.246519
536.0000	0.248177
535.5000	0.250621
535.0000	0.252199
534.5000	0.254437
534.0000	0.255895
533.5000	0.258017
533.0000	0.259349
532.5000	0.261252
532.0000	0.262427
531.5000	0.2641
531.0000	0.265127
530.5000	0.266507
530.0000	0.267361
529.5000	0.26847
529.0000	0.269112
528.5000	0.269924
528.0000	0.270344
527.5000	0.270835
527.0000	0.271063
526.5000	0.27123
526.0000	0.27121
525.5000	0.271035
525.0000	0.270805
524.5000	0.270306
524.0000	0.269877
523.5000	0.269039
523.0000	0.268384
522.5000	0.267253
522.0000	0.266377
521.5000	0.264976
521.0000	0.263937
520.5000	0.262221
520.0000	0.261102
519.5000	0.259155
519.0000	0.257779
518.5000	0.255604
518.0000	0.254133
517.5000	0.251767
517.0000	0.250148
516.5000	0.247662
516.0000	0.245973
515.5000	0.243351
515.0000	0.241589
514.5000	0.238813
514.0000	0.236986
513.5000	0.234208
513.0000	0.23234
512.5000	0.229509
512.0000	0.227631
511.5000	0.224783
511.0000	0.222899
510.5000	0.219994
510.0000	0.218083
509.5000	0.215225
509.0000	0.213332
508.5000	0.210451
508.0000	0.208595
507.5000	0.205806
507.0000	0.203946
506.5000	0.20115
506.0000	0.199319
505.5000	0.196601
505.0000	0.194823
504.5000	0.192132
504.0000	0.190383
503.5000	0.1878
503.0000	0.186096
502.5000	0.18357
502.0000	0.181901
501.5000	0.179479
501.0000	0.177888
500.5000	0.175491
500.0000	0.173945
499.5000	0.17166
499.0000	0.170152
498.5000	0.167877
498.0000	0.166425
497.5000	0.164268
497.0000	0.162848
496.5000	0.160716
496.0000	0.159319
495.5000	0.157301
495.0000	0.155944
494.5000	0.153891
494.0000	0.152581
493.5000	0.150643
493.0000	0.14933
492.5000	0.147359
492.0000	0.146101
491.5000	0.144214
491.0000	0.142949
490.5000	0.141029
490.0000	0.139788
489.5000	0.137958
489.0000	0.136715
488.5000	0.134829
488.0000	0.133616
487.5000	0.131814
487.0000	0.130612
486.5000	0.12881
486.0000	0.127636
485.5000	0.125888
485.0000	0.124724
484.5000	0.123001
484.0000	0.121879
483.5000	0.120221
483.0000	0.119102
482.5000	0.11747
482.0000	0.116416
481.5000	0.114821
481.0000	0.113772
480.5000	0.112192
480.0000	0.111209
479.5000	0.109733
479.0000	0.108748
478.5000	0.107314
478.0000	0.106397
477.5000	0.105012
477.0000	0.10413
476.5000	0.102824
476.0000	0.10199
475.5000	0.100748
475.0000	0.0999613
474.5000	0.0988281
474.0000	0.0981328
473.5000	0.0970769
473.0000	0.0964124
472.5000	0.0954842
472.0000	0.0948907
471.5000	0.094042
471.0000	0.0935331
470.5000	0.0928102
470.0000	0.0923956
469.5000	0.0918103
469.0000	0.0914828
468.5000	0.091069
468.0000	0.0908553
467.5000	0.0905551
467.0000	0.0904502
466.5000	0.0903727
466.0000	0.0904147
465.5000	0.0905485
465.0000	0.0907444
464.5000	0.0911588
464.0000	0.0915162
463.5000	0.0921788
463.0000	0.0927338
462.5000	0.0937204
462.0000	0.0945052
461.5000	0.0957942
461.0000	0.0967741
460.5000	0.0984164
460.0000	0.0996288
459.5000	0.101598
459.0000	0.103001
458.5000	0.105272
458.0000	0.106872
457.5000	0.109414
457.0000	0.111198
456.5000	0.113937
456.0000	0.115797
455.5000	0.11856
455.0000	0.120431
454.5000	0.123154
454.0000	0.12492
453.5000	0.127372
453.0000	0.128915
452.5000	0.131006
452.0000	0.132264
451.5000	0.133826
451.0000	0.134671
450.5000	0.135685
450.0000	0.13616
449.5000	0.136498
449.0000	0.136547
448.5000	0.13633
448.0000	0.136021
447.5000	0.135269
447.0000	0.134659
446.5000	0.13352
446.0000	0.13265
445.5000	0.131109
445.0000	0.130081
444.5000	0.128369
444.0000	0.127191
443.5000	0.125292
443.0000	0.124065
442.5000	0.122135
442.0000	0.120854
441.5000	0.118888
441.0000	0.11762
440.5000	0.115777
440.0000	0.114575
439.5000	0.112828
439.0000	0.111759
438.5000	0.110207
438.0000	0.109257
437.5000	0.107897
437.0000	0.107125
436.5000	0.106098
436.0000	0.105547
435.5000	0.10485
435.0000	0.104555
434.5000	0.104229
434.0000	0.104141
433.5000	0.104172
433.0000	0.104376
432.5000	0.104816
432.0000	0.105263
431.5000	0.10601
431.0000	0.106674
430.5000	0.107775
430.0000	0.108606
429.5000	0.109897
429.0000	0.110852
428.5000	0.112315
428.0000	0.113314
427.5000	0.114836
427.0000	0.115829
426.5000	0.1172
426.0000	0.118062
425.5000	0.119274
425.0000	0.11999
424.5000	0.120951
424.0000	0.121462
423.5000	0.122049
423.0000	0.122323
422.5000	0.122553
422.0000	0.122567
421.5000	0.122349
421.0000	0.122081
420.5000	0.121512
420.0000	0.120179
419.5000	0.119272
419.0000	0.118527
418.5000	0.117306
418.0000	0.116437
417.5000	0.115028
417.0000	0.114025
416.5000	0.112456
416.0000	0.111355
415.5000	0.109718
415.0000	0.108659
414.5000	0.107018
414.0000	0.105955
413.5000	0.104343
413.0000	0.103286
412.5000	0.101795
412.0000	0.100864
411.5000	0.0994935
411.0000	0.0986601
410.5000	0.0975617
410.0000	0.0968538
409.5000	0.0959666
409.0000	0.0954266
408.5000	0.0946906
408.0000	0.0943027
407.5000	0.0938205
407.0000	0.0935782
406.5000	0.0933468
406.0000	0.0932539
405.5000	0.0931366
405.0000	0.0931709
404.5000	0.0932367
404.0000	0.0933198
403.5000	0.0934474
403.0000	0.0935767
402.5000	0.0938331
402.0000	0.0940069
401.5000	0.0942336
401.0000	0.0944024
400.5000	0.0945632
400.0000	0.0946902
399.5000	0.0947985
399.0000	0.094907
398.5000	0.0949695
398.0000	0.0950144
397.5000	0.0949396
397.0000	0.0948764
396.5000	0.0947313
396.0000	0.0946209
395.5000	0.0943469
395.0000	0.0941476
394.5000	0.0938706
394.0000	0.0937069
393.5000	0.0933918
393.0000	0.0931515
392.5000	0.0928454
392.0000	0.0926732
391.5000	0.0923213
391.0000	0.0921555
390.5000	0.0919674
390.0000	0.0918353
389.5000	0.0916847
389.0000	0.0915937
388.5000	0.0915687
388.0000	0.0916331
387.5000	0.0916972
387.0000	0.0917605
386.5000	0.0920103
386.0000	0.0922566
385.5000	0.0925385
385.0000	0.0928166
384.5000	0.0933138
384.0000	0.0937033
383.5000	0.0942529
383.0000	0.0946868
382.5000	0.0954402
382.0000	0.0959529
381.5000	0.0967057
381.0000	0.097239
380.5000	0.09813
380.0000	0.0987438
379.5000	0.0995908
379.0000	0.10022
378.5000	0.101178
378.0000	0.101833
377.5000	0.102838
377.0000	0.103514
376.5000	0.104598
376.0000	0.105319
375.5000	0.106456
375.0000	0.107174
374.5000	0.108315
374.0000	0.109104
373.5000	0.110273
373.0000	0.111091
372.5000	0.112423
372.0000	0.113302
371.5000	0.114578
371.0000	0.115413
370.5000	0.116796
370.0000	0.118161
369.5000	0.119718
369.0000	0.120708
368.5000	0.122198
368.0000	0.123258
367.5000	0.124915
367.0000	0.126006
366.5000	0.127814
366.0000	0.128928
365.5000	0.130771
365.0000	0.132033
364.5000	0.133934
364.0000	0.135189
363.5000	0.13708
363.0000	0.138386
362.5000	0.14034
362.0000	0.141669
361.5000	0.143637
361.0000	0.144968
360.5000	0.147021
360.0000	0.148317
359.5000	0.150211
359.0000	0.151478
358.5000	0.153373
358.0000	0.154643
357.5000	0.15649
357.0000	0.157685
356.5000	0.15944
356.0000	0.160598
355.5000	0.162233
355.0000	0.163323
354.5000	0.16491
354.0000	0.165912
353.5000	0.167439
353.0000	0.16842
352.5000	0.169855
352.0000	0.170727
351.5000	0.17205
351.0000	0.172859
350.5000	0.174197
350.0000	0.175045
349.5000	0.176184
349.0000	0.176998
348.5000	0.178122
348.0000	0.178848
347.5000	0.179833
347.0000	0.180509
346.5000	0.181513
346.0000	0.182202
345.5000	0.183129
345.0000	0.183781
344.5000	0.184695
344.0000	0.185306
343.5000	0.186249
343.0000	0.186861
342.5000	0.187703
342.0000	0.188391
341.5000	0.189349
341.0000	0.190131
340.5000	0.191134
340.0000	0.192547
339.5000	0.193684
339.0000	0.19448
338.5000	0.195671
338.0000	0.196526
337.5000	0.197803
337.0000	0.198688
336.5000	0.200197
336.0000	0.201219
335.5000	0.202637
335.0000	0.203669
334.5000	0.205376
334.0000	0.206546
333.5000	0.208513
333.0000	0.209838
332.5000	0.211957
332.0000	0.213391
331.5000	0.21563
331.0000	0.21728
330.5000	0.21987
330.0000	0.221613
329.5000	0.22438
329.0000	0.226495
328.5000	0.229749
328.0000	0.231876
327.5000	0.235238
327.0000	0.23764
326.5000	0.24152
326.0000	0.244266
325.5000	0.248657
325.0000	0.251698
324.5000	0.256436
324.0000	0.259817
323.5000	0.265094
323.0000	0.268838
322.5000	0.274669
322.0000	0.278863
321.5000	0.285521
321.0000	0.290114
320.5000	0.29741
320.0000	0.302455
319.5000	0.310485
319.0000	0.315969
318.5000	0.32473
318.0000	0.330842
317.5000	0.34043
317.0000	0.347193
316.5000	0.357821
316.0000	0.365151
315.5000	0.376656
315.0000	0.384661
314.5000	0.397374
314.0000	0.406108
313.5000	0.419885
313.0000	0.429402
312.5000	0.444487
312.0000	0.455007
311.5000	0.471507
311.0000	0.482916
310.5000	0.500833
310.0000	0.513279
309.5000	0.532908
309.0000	0.546422
308.5000	0.567718
308.0000	0.582497
307.5000	0.605529
307.0000	0.621477
306.5000	0.646674
306.0000	0.664146
305.5000	0.691415
305.0000	0.710335
304.5000	0.739832
304.0000	0.760281
303.5000	0.792131
303.0000	0.813986
302.5000	0.848125
302.0000	0.871678
301.5000	0.908392
301.0000	0.933704
300.5000	0.972905
300.0000	0.999832

##### Extended Information
[コメント情報]
試料名
コメント
測定者
所属
会社	関西大学　化学生命工学部

[データ情報]
作成日時	2014/05/16 0:46

データタイプ	等間隔データ
横軸	Wavelength [nm]
縦軸	Abs
スタート	700 nm
エンド	300 nm
データ間隔	0.5 nm
データ数	801     

[測定情報]
装置名	V-670
機種名	V-670
シリアル番号	B118261154

付属品名	USE-753
付属品シリアルNo.	B118261154
  セル長	0.1 mm

測定日時	2014/05/16 0:45

測光モード	Abs
測定範囲	700 - 300 nm
データ取込間隔	0.5 nm
UV/Vis バンド幅	1.0 nm
NIR バンド幅	8.0 nm
レスポンス	Medium
走査速度	400 nm/min
光源切換	340 nm
回折格子切換	850 nm
光源	D2/WI
フィルタ切換	ステップ
補正	ベースライン

