TITLE	
DATA TYPE	ULTRAVIOLET SPECTRUM
ORIGIN	JASCO
OWNER	
DATE	14/05/14
TIME	18:43:53
SPECTROMETER/DATA SYSTEM	
LOCALE	1041
RESOLUTION	
DELTAX	-0.5
XUNITS	NANOMETERS
YUNITS	ABSORBANCE
FIRSTX	  700.0000
LASTX	  300.0000
NPOINTS	     801
FIRSTY	     0.00831
MAXY	     2.64564
MINY	     0.00831
XYDATA
700.0000	0.00831117
699.5000	0.00832909
699.0000	0.00833959
698.5000	0.00836256
698.0000	0.00837071
697.5000	0.00839796
697.0000	0.00840493
696.5000	0.0084212
696.0000	0.00842277
695.5000	0.00845227
695.0000	0.00847672
694.5000	0.00850176
694.0000	0.00853311
693.5000	0.00858011
693.0000	0.00858698
692.5000	0.0086067
692.0000	0.00862502
691.5000	0.00865612
691.0000	0.00865064
690.5000	0.00868443
690.0000	0.00870561
689.5000	0.00873198
689.0000	0.00874257
688.5000	0.00876491
688.0000	0.00881291
687.5000	0.00880628
687.0000	0.00880842
686.5000	0.0088321
686.0000	0.00884097
685.5000	0.00884044
685.0000	0.00883882
684.5000	0.00886272
684.0000	0.00889311
683.5000	0.00891064
683.0000	0.00892282
682.5000	0.00893546
682.0000	0.00896324
681.5000	0.00897412
681.0000	0.00899751
680.5000	0.00900132
680.0000	0.00906026
679.5000	0.00910403
679.0000	0.00914824
678.5000	0.00920802
678.0000	0.00922963
677.5000	0.00928395
677.0000	0.00933139
676.5000	0.00938835
676.0000	0.00942424
675.5000	0.00945492
675.0000	0.00949859
674.5000	0.00952318
674.0000	0.00956337
673.5000	0.00961513
673.0000	0.0096462
672.5000	0.00969477
672.0000	0.00971941
671.5000	0.00977894
671.0000	0.00984315
670.5000	0.00987282
670.0000	0.00989697
669.5000	0.00993904
669.0000	0.00998219
668.5000	0.010055
668.0000	0.0100955
667.5000	0.0101328
667.0000	0.0101753
666.5000	0.0102258
666.0000	0.0102715
665.5000	0.0103415
665.0000	0.0103632
664.5000	0.0103912
664.0000	0.010449
663.5000	0.0105359
663.0000	0.0105848
662.5000	0.0106555
662.0000	0.0106892
661.5000	0.0107628
661.0000	0.0108233
660.5000	0.0108796
660.0000	0.0109395
659.5000	0.0110255
659.0000	0.0110915
658.5000	0.0111626
658.0000	0.0112073
657.5000	0.0112885
657.0000	0.0113588
656.5000	0.0114383
656.0000	0.0114893
655.5000	0.0116053
655.0000	0.0116726
654.5000	0.0118065
654.0000	0.0118621
653.5000	0.0119586
653.0000	0.0120164
652.5000	0.0121089
652.0000	0.0121922
651.5000	0.0123347
651.0000	0.0123978
650.5000	0.0124936
650.0000	0.0125672
649.5000	0.0127215
649.0000	0.012778
648.5000	0.0128801
648.0000	0.0129318
647.5000	0.0130281
647.0000	0.0131136
646.5000	0.0132148
646.0000	0.0133141
645.5000	0.0134521
645.0000	0.0135223
644.5000	0.0136007
644.0000	0.0136877
643.5000	0.0138187
643.0000	0.0139117
642.5000	0.0140486
642.0000	0.0141349
641.5000	0.0142777
641.0000	0.014404
640.5000	0.014546
640.0000	0.014635
639.5000	0.0147992
639.0000	0.0149021
638.5000	0.0150883
638.0000	0.0152239
637.5000	0.0153584
637.0000	0.0154741
636.5000	0.0156185
636.0000	0.0157406
635.5000	0.0159126
635.0000	0.0160379
634.5000	0.0162034
634.0000	0.01633
633.5000	0.0165192
633.0000	0.0166249
632.5000	0.0167933
632.0000	0.0169116
631.5000	0.0171292
631.0000	0.0172628
630.5000	0.0174478
630.0000	0.0175844
629.5000	0.0178077
629.0000	0.0179589
628.5000	0.0181656
628.0000	0.0183018
627.5000	0.0185398
627.0000	0.0187024
626.5000	0.0189612
626.0000	0.0191021
625.5000	0.0193353
625.0000	0.0195013
624.5000	0.0197738
624.0000	0.0199093
623.5000	0.0201689
623.0000	0.0203426
622.5000	0.0206106
622.0000	0.0207806
621.5000	0.0210281
621.0000	0.0212065
620.5000	0.0214792
620.0000	0.0216573
619.5000	0.0219319
619.0000	0.0221418
618.5000	0.0224161
618.0000	0.0226231
617.5000	0.0229233
617.0000	0.0231253
616.5000	0.0234178
616.0000	0.0236312
615.5000	0.0239815
615.0000	0.0241925
614.5000	0.0245135
614.0000	0.0247339
613.5000	0.025054
613.0000	0.0252886
612.5000	0.0256203
612.0000	0.0258493
611.5000	0.0261947
611.0000	0.0264552
610.5000	0.0268287
610.0000	0.0270616
609.5000	0.0274142
609.0000	0.0276754
608.5000	0.0280655
608.0000	0.0283265
607.5000	0.0287282
607.0000	0.0290101
606.5000	0.0294433
606.0000	0.0297316
605.5000	0.0301712
605.0000	0.0304732
604.5000	0.0309661
604.0000	0.031251
603.5000	0.0317286
603.0000	0.0320617
602.5000	0.032557
602.0000	0.0328987
601.5000	0.0333988
601.0000	0.0337352
600.5000	0.0342794
600.0000	0.0347505
599.5000	0.0352951
599.0000	0.0357039
598.5000	0.0363012
598.0000	0.0367092
597.5000	0.0372901
597.0000	0.0377208
596.5000	0.03841
596.0000	0.0388522
595.5000	0.0395189
595.0000	0.0399936
594.5000	0.040727
594.0000	0.0411966
593.5000	0.0419283
593.0000	0.042462
592.5000	0.0432255
592.0000	0.0437372
591.5000	0.0445246
591.0000	0.045105
590.5000	0.0459622
590.0000	0.046525
589.5000	0.0473874
589.0000	0.0480058
588.5000	0.04892
588.0000	0.0495514
587.5000	0.0505112
587.0000	0.0511632
586.5000	0.0521374
586.0000	0.0527886
585.5000	0.0538122
585.0000	0.0545302
584.5000	0.0555653
584.0000	0.0562683
583.5000	0.05735
583.0000	0.0580982
582.5000	0.0592296
582.0000	0.0599817
581.5000	0.0611367
581.0000	0.0619279
580.5000	0.063125
580.0000	0.0639187
579.5000	0.0651726
579.0000	0.066
578.5000	0.0672196
578.0000	0.0680591
577.5000	0.0693348
577.0000	0.0701953
576.5000	0.0714966
576.0000	0.0723716
575.5000	0.073706
575.0000	0.0746147
574.5000	0.0759534
574.0000	0.0768682
573.5000	0.0782464
573.0000	0.0791832
572.5000	0.0806099
572.0000	0.0815641
571.5000	0.0829837
571.0000	0.083941
570.5000	0.085445
570.0000	0.0864587
569.5000	0.0879758
569.0000	0.0889766
568.5000	0.0904914
568.0000	0.091546
567.5000	0.0930876
567.0000	0.0941332
566.5000	0.095713
566.0000	0.0967605
565.5000	0.0983844
565.0000	0.0994692
564.5000	0.101086
564.0000	0.102172
563.5000	0.103802
563.0000	0.104908
562.5000	0.106582
562.0000	0.107719
561.5000	0.109393
561.0000	0.110533
560.5000	0.112221
560.0000	0.11336
559.5000	0.115068
559.0000	0.116212
558.5000	0.117953
558.0000	0.119081
557.5000	0.120792
557.0000	0.121937
556.5000	0.123636
556.0000	0.124766
555.5000	0.126462
555.0000	0.127573
554.5000	0.129266
554.0000	0.130398
553.5000	0.132075
553.0000	0.133161
552.5000	0.134778
552.0000	0.135871
551.5000	0.137528
551.0000	0.138581
550.5000	0.140175
550.0000	0.141214
549.5000	0.142767
549.0000	0.143765
548.5000	0.145291
548.0000	0.1463
547.5000	0.147765
547.0000	0.148706
546.5000	0.15016
546.0000	0.151117
545.5000	0.152496
545.0000	0.15336
544.5000	0.154682
544.0000	0.155564
543.5000	0.156853
543.0000	0.157671
542.5000	0.158864
542.0000	0.159642
541.5000	0.160808
541.0000	0.16154
540.5000	0.162625
540.0000	0.163323
539.5000	0.164349
539.0000	0.164955
538.5000	0.165855
538.0000	0.166441
537.5000	0.167267
537.0000	0.167773
536.5000	0.168517
536.0000	0.168983
535.5000	0.169636
535.0000	0.169996
534.5000	0.170524
534.0000	0.170823
533.5000	0.171211
533.0000	0.171422
532.5000	0.17176
532.0000	0.171937
531.5000	0.172134
531.0000	0.172176
530.5000	0.172252
530.0000	0.172235
529.5000	0.172175
529.0000	0.172051
528.5000	0.171865
528.0000	0.171679
527.5000	0.171335
527.0000	0.171072
526.5000	0.170579
526.0000	0.170235
525.5000	0.169608
525.0000	0.169137
524.5000	0.168417
524.0000	0.167906
523.5000	0.167085
523.0000	0.166487
522.5000	0.165545
522.0000	0.164873
521.5000	0.163838
521.0000	0.163131
520.5000	0.16198
520.0000	0.16235
519.5000	0.161123
519.0000	0.160266
518.5000	0.158933
518.0000	0.158021
517.5000	0.156601
517.0000	0.155654
516.5000	0.154229
516.0000	0.153249
515.5000	0.151726
515.0000	0.150701
514.5000	0.149193
514.0000	0.148147
513.5000	0.146595
513.0000	0.145527
512.5000	0.14394
512.0000	0.142852
511.5000	0.14126
511.0000	0.140211
510.5000	0.138591
510.0000	0.137504
509.5000	0.135867
509.0000	0.134832
508.5000	0.133245
508.0000	0.132138
507.5000	0.130523
507.0000	0.129471
506.5000	0.127897
506.0000	0.12684
505.5000	0.125229
505.0000	0.12416
504.5000	0.122568
504.0000	0.121514
503.5000	0.119933
503.0000	0.118886
502.5000	0.117312
502.0000	0.116278
501.5000	0.114763
501.0000	0.113735
500.5000	0.11222
500.0000	0.111194
499.5000	0.109767
499.0000	0.108775
498.5000	0.107317
498.0000	0.106344
497.5000	0.104947
497.0000	0.103996
496.5000	0.102618
496.0000	0.1017
495.5000	0.100315
495.0000	0.0994043
494.5000	0.0980544
494.0000	0.0971495
493.5000	0.095807
493.0000	0.0949081
492.5000	0.0936087
492.0000	0.0927343
491.5000	0.0914603
491.0000	0.0905889
490.5000	0.0893237
490.0000	0.0884766
489.5000	0.0871934
489.0000	0.0863721
488.5000	0.0850889
488.0000	0.0842734
487.5000	0.0830406
487.0000	0.082245
486.5000	0.0810255
486.0000	0.0802241
485.5000	0.0790453
485.0000	0.078273
484.5000	0.0771156
484.0000	0.0763366
483.5000	0.0752076
483.0000	0.0744782
482.5000	0.0733961
482.0000	0.0727106
481.5000	0.0716808
481.0000	0.0710068
480.5000	0.0699943
480.0000	0.0693257
479.5000	0.0683744
479.0000	0.0677265
478.5000	0.0667592
478.0000	0.0661598
477.5000	0.065248
477.0000	0.064697
476.5000	0.0638338
476.0000	0.063279
475.5000	0.0624976
475.0000	0.0619678
474.5000	0.0612535
474.0000	0.0607656
473.5000	0.0601078
473.0000	0.0596932
472.5000	0.0591381
472.0000	0.0587661
471.5000	0.05825
471.0000	0.0579679
470.5000	0.057517
470.0000	0.0573049
469.5000	0.0570201
469.0000	0.0568362
468.5000	0.05665
468.0000	0.0565617
467.5000	0.0565136
467.0000	0.056515
466.5000	0.0565753
466.0000	0.056658
465.5000	0.0569424
465.0000	0.057186
464.5000	0.0576892
464.0000	0.0580463
463.5000	0.0587357
463.0000	0.0592821
462.5000	0.0602392
462.0000	0.0609708
461.5000	0.0622821
461.0000	0.0632526
460.5000	0.0648811
460.0000	0.0660838
459.5000	0.0680988
459.0000	0.0695631
458.5000	0.0719737
458.0000	0.0736842
457.5000	0.0764479
457.0000	0.0784401
456.5000	0.0815793
456.0000	0.0837895
455.5000	0.0872558
455.0000	0.0896321
454.5000	0.0932549
454.0000	0.0957422
453.5000	0.0994462
453.0000	0.101878
452.5000	0.105401
452.0000	0.107623
451.5000	0.110779
451.0000	0.112719
450.5000	0.115285
450.0000	0.116764
449.5000	0.118601
449.0000	0.119548
448.5000	0.120528
448.0000	0.120963
447.5000	0.121144
447.0000	0.121035
446.5000	0.120504
446.0000	0.119943
445.5000	0.118873
445.0000	0.118002
444.5000	0.116501
444.0000	0.115382
443.5000	0.113626
443.0000	0.112403
442.5000	0.110552
442.0000	0.109288
441.5000	0.107385
441.0000	0.106134
440.5000	0.10426
440.0000	0.103068
439.5000	0.101323
439.0000	0.100229
438.5000	0.0986818
438.0000	0.0977527
437.5000	0.0964388
437.0000	0.0957293
436.5000	0.0948146
436.0000	0.0943076
435.5000	0.09377
435.0000	0.0935772
434.5000	0.0935974
434.0000	0.0937506
433.5000	0.0942788
433.0000	0.0948163
432.5000	0.0959087
432.0000	0.096814
431.5000	0.0984477
431.0000	0.0997093
430.5000	0.101891
430.0000	0.103473
429.5000	0.106082
429.0000	0.107967
428.5000	0.110944
428.0000	0.112985
427.5000	0.116223
427.0000	0.118382
426.5000	0.121638
426.0000	0.123782
425.5000	0.12702
425.0000	0.129121
424.5000	0.132107
424.0000	0.133947
423.5000	0.136649
423.0000	0.138265
422.5000	0.140415
422.0000	0.14172
421.5000	0.143371
421.0000	0.144325
420.5000	0.145486
420.0000	0.14598
419.5000	0.146572
419.0000	0.14681
418.5000	0.146957
418.0000	0.146855
417.5000	0.146563
417.0000	0.14627
416.5000	0.145658
416.0000	0.14519
415.5000	0.144376
415.0000	0.143857
414.5000	0.142951
414.0000	0.142348
413.5000	0.141453
413.0000	0.140879
412.5000	0.140074
412.0000	0.139565
411.5000	0.138885
411.0000	0.138561
410.5000	0.138165
410.0000	0.13799
409.5000	0.137803
409.0000	0.13778
408.5000	0.137858
408.0000	0.138051
407.5000	0.138516
407.0000	0.13887
406.5000	0.139551
406.0000	0.140043
405.5000	0.140985
405.0000	0.141758
404.5000	0.142918
404.0000	0.143797
403.5000	0.145156
403.0000	0.146127
402.5000	0.147654
402.0000	0.14869
401.5000	0.150301
401.0000	0.151383
400.5000	0.153041
400.0000	0.154119
399.5000	0.155718
399.0000	0.156761
398.5000	0.158194
398.0000	0.159094
397.5000	0.160351
397.0000	0.161158
396.5000	0.162245
396.0000	0.162956
395.5000	0.16388
395.0000	0.164426
394.5000	0.165168
394.0000	0.165633
393.5000	0.166292
393.0000	0.166685
392.5000	0.167279
392.0000	0.167756
391.5000	0.16844
391.0000	0.168884
390.5000	0.169625
390.0000	0.170192
389.5000	0.171078
389.0000	0.171742
388.5000	0.172829
388.0000	0.173655
387.5000	0.175021
387.0000	0.176037
386.5000	0.177704
386.0000	0.178897
385.5000	0.180782
385.0000	0.182119
384.5000	0.184355
384.0000	0.185949
383.5000	0.188414
383.0000	0.190208
382.5000	0.19307
382.0000	0.195047
381.5000	0.198075
381.0000	0.200195
380.5000	0.203518
380.0000	0.205842
379.5000	0.209278
379.0000	0.21165
378.5000	0.215382
378.0000	0.217926
377.5000	0.221872
377.0000	0.224513
376.5000	0.228591
376.0000	0.231382
375.5000	0.235793
375.0000	0.238752
374.5000	0.243363
374.0000	0.246537
373.5000	0.251659
373.0000	0.255243
372.5000	0.260919
372.0000	0.264818
371.5000	0.271078
371.0000	0.275503
370.5000	0.282652
370.0000	0.288513
369.5000	0.296808
369.0000	0.302603
368.5000	0.311797
368.0000	0.318316
367.5000	0.328764
367.0000	0.336182
366.5000	0.348199
366.0000	0.356654
365.5000	0.370194
365.0000	0.379728
364.5000	0.394993
364.0000	0.40577
363.5000	0.422892
363.0000	0.434913
362.5000	0.454038
362.0000	0.467478
361.5000	0.488765
361.0000	0.503802
360.5000	0.527534
360.0000	0.544131
359.5000	0.570302
359.0000	0.588542
358.5000	0.617358
358.0000	0.637463
357.5000	0.669021
357.0000	0.690995
356.5000	0.725493
356.0000	0.749459
355.5000	0.786871
355.0000	0.812852
354.5000	0.853428
354.0000	0.881506
353.5000	0.925025
353.0000	0.955086
352.5000	1.00176
352.0000	1.03375
351.5000	1.08336
351.0000	1.11734
350.5000	1.16964
350.0000	1.20535
349.5000	1.26021
349.0000	1.29746
348.5000	1.3542
348.0000	1.39241
347.5000	1.45065
347.0000	1.49001
346.5000	1.54921
346.0000	1.58872
345.5000	1.64882
345.0000	1.68837
344.5000	1.74764
344.0000	1.78694
343.5000	1.84541
343.0000	1.88416
342.5000	1.94104
342.0000	1.97823
341.5000	2.03313
341.0000	2.06816
340.5000	2.11945
340.0000	2.14468
339.5000	2.19218
339.0000	2.22245
338.5000	2.26576
338.0000	2.29308
337.5000	2.33159
337.0000	2.35639
336.5000	2.39147
336.0000	2.41339
335.5000	2.44451
335.0000	2.46359
334.5000	2.49086
334.0000	2.50717
333.5000	2.52957
333.0000	2.543
332.5000	2.56245
332.0000	2.57381
331.5000	2.59022
331.0000	2.60024
330.5000	2.61265
330.0000	2.61986
329.5000	2.62881
329.0000	2.63396
328.5000	2.63897
328.0000	2.64155
327.5000	2.64477
327.0000	2.64564
326.5000	2.64531
326.0000	2.64373
325.5000	2.63988
325.0000	2.63665
324.5000	2.63006
324.0000	2.62521
323.5000	2.61593
323.0000	2.60914
322.5000	2.59848
322.0000	2.59071
321.5000	2.57854
321.0000	2.56952
320.5000	2.55591
320.0000	2.54673
319.5000	2.53263
319.0000	2.52341
318.5000	2.50923
318.0000	2.49949
317.5000	2.4849
317.0000	2.47533
316.5000	2.46142
316.0000	2.45214
315.5000	2.43886
315.0000	2.42985
314.5000	2.41807
314.0000	2.4101
313.5000	2.39966
313.0000	2.39292
312.5000	2.38324
312.0000	2.37722
311.5000	2.36941
311.0000	2.36513
310.5000	2.35975
310.0000	2.35665
309.5000	2.35379
309.0000	2.35272
308.5000	2.35302
308.0000	2.35373
307.5000	2.35651
307.0000	2.35958
306.5000	2.36655
306.0000	2.37201
305.5000	2.38209
305.0000	2.39035
304.5000	2.40477
304.0000	2.41572
303.5000	2.43464
303.0000	2.44842
302.5000	2.47219
302.0000	2.48947
301.5000	2.51788
301.0000	2.5386
300.5000	2.57107
300.0000	2.5949

##### Extended Information
[コメント情報]
試料名
コメント
測定者
所属
会社	関西大学　化学生命工学部

[データ情報]
作成日時	2014/05/14 18:43

データタイプ	等間隔データ
横軸	Wavelength [nm]
縦軸	Abs
スタート	700 nm
エンド	300 nm
データ間隔	0.5 nm
データ数	801     

[測定情報]
装置名	V-670
機種名	V-670
シリアル番号	B118261154

付属品名	USE-753
付属品シリアルNo.	B118261154
  セル長	0.1 mm

測定日時	2014/05/14 18:43

測光モード	Abs
測定範囲	700 - 300 nm
データ取込間隔	0.5 nm
UV/Vis バンド幅	1.0 nm
NIR バンド幅	8.0 nm
レスポンス	Medium
走査速度	400 nm/min
光源切換	340 nm
回折格子切換	850 nm
光源	D2/WI
フィルタ切換	ステップ
補正	ベースライン

