TITLE	
DATA TYPE	ULTRAVIOLET SPECTRUM
ORIGIN	JASCO
OWNER	
DATE	14/04/04
TIME	17:33:29
SPECTROMETER/DATA SYSTEM	
LOCALE	1041
RESOLUTION	
DELTAX	-0.5
XUNITS	NANOMETERS
YUNITS	ABSORBANCE
FIRSTX	  700.0000
LASTX	  300.0000
NPOINTS	     801
FIRSTY	     0.03645
MAXY	     0.28455
MINY	     0.03645
XYDATA
700.0000	0.0364549
699.5000	0.036477
699.0000	0.0364806
698.5000	0.0365126
698.0000	0.0365164
697.5000	0.036543
697.0000	0.0365626
696.5000	0.0365948
696.0000	0.0366374
695.5000	0.0366507
695.0000	0.0366647
694.5000	0.0366852
694.0000	0.0366927
693.5000	0.0367141
693.0000	0.0367068
692.5000	0.0367367
692.0000	0.0367455
691.5000	0.036792
691.0000	0.0367883
690.5000	0.0367899
690.0000	0.0367824
689.5000	0.03677
689.0000	0.0367828
688.5000	0.0367918
688.0000	0.0368075
687.5000	0.0368259
687.0000	0.0368135
686.5000	0.0368227
686.0000	0.0368241
685.5000	0.0368093
685.0000	0.0367886
684.5000	0.0368071
684.0000	0.0368252
683.5000	0.0368361
683.0000	0.0368529
682.5000	0.0368505
682.0000	0.0368792
681.5000	0.0368752
681.0000	0.0368814
680.5000	0.036897
680.0000	0.0369247
679.5000	0.0369567
679.0000	0.0369632
678.5000	0.0369984
678.0000	0.0370174
677.5000	0.0370276
677.0000	0.0370505
676.5000	0.037085
676.0000	0.0371019
675.5000	0.037112
675.0000	0.0371401
674.5000	0.0371839
674.0000	0.0372045
673.5000	0.0372493
673.0000	0.0372621
672.5000	0.0372843
672.0000	0.0373042
671.5000	0.0373157
671.0000	0.0373301
670.5000	0.0373857
670.0000	0.0373953
669.5000	0.037438
669.0000	0.0374702
668.5000	0.0374943
668.0000	0.037514
667.5000	0.0375694
667.0000	0.0375792
666.5000	0.0376525
666.0000	0.0376936
665.5000	0.037737
665.0000	0.0377883
664.5000	0.0378454
664.0000	0.0378733
663.5000	0.0379567
663.0000	0.0379789
662.5000	0.0380122
662.0000	0.0380678
661.5000	0.0381452
661.0000	0.0381847
660.5000	0.0382325
660.0000	0.0382659
659.5000	0.0383748
659.0000	0.0384246
658.5000	0.0384911
658.0000	0.0385401
657.5000	0.0386283
657.0000	0.0386679
656.5000	0.0387531
656.0000	0.0388245
655.5000	0.0389113
655.0000	0.0389621
654.5000	0.0390451
654.0000	0.0391228
653.5000	0.0391984
653.0000	0.0392373
652.5000	0.0393136
652.0000	0.0393744
651.5000	0.0394558
651.0000	0.0395316
650.5000	0.0396334
650.0000	0.0396846
649.5000	0.039793
649.0000	0.0398531
648.5000	0.0399447
648.0000	0.0400094
647.5000	0.0400784
647.0000	0.0401615
646.5000	0.0402625
646.0000	0.0403517
645.5000	0.040471
645.0000	0.0405504
644.5000	0.0406459
644.0000	0.0407054
643.5000	0.0408446
643.0000	0.0409151
642.5000	0.0410375
642.0000	0.0411055
641.5000	0.0412265
641.0000	0.0413186
640.5000	0.0414167
640.0000	0.0415092
639.5000	0.0416315
639.0000	0.041709
638.5000	0.0418228
638.0000	0.0418788
637.5000	0.0420062
637.0000	0.0420868
636.5000	0.0422248
636.0000	0.0423044
635.5000	0.0424654
635.0000	0.0425775
634.5000	0.0427108
634.0000	0.0428108
633.5000	0.0429563
633.0000	0.0430393
632.5000	0.0431876
632.0000	0.0432816
631.5000	0.0434616
631.0000	0.0435726
630.5000	0.0437166
630.0000	0.0437946
629.5000	0.0439339
629.0000	0.0440237
628.5000	0.044145
628.0000	0.0442461
627.5000	0.0444153
627.0000	0.0445211
626.5000	0.0446909
626.0000	0.0448055
625.5000	0.0449853
625.0000	0.0450797
624.5000	0.045232
624.0000	0.0453384
623.5000	0.0455384
623.0000	0.0456478
622.5000	0.0458284
622.0000	0.0459587
621.5000	0.046135
621.0000	0.0462701
620.5000	0.0464426
620.0000	0.0465451
619.5000	0.0467174
619.0000	0.0468393
618.5000	0.0470574
618.0000	0.0471801
617.5000	0.0473504
617.0000	0.0474603
616.5000	0.0476691
616.0000	0.0477835
615.5000	0.0479758
615.0000	0.0480821
614.5000	0.0482638
614.0000	0.0483994
613.5000	0.0485854
613.0000	0.0487023
612.5000	0.0488875
612.0000	0.0490205
611.5000	0.0492202
611.0000	0.0493634
610.5000	0.0495637
610.0000	0.0496954
609.5000	0.049919
609.0000	0.0500704
608.5000	0.0502858
608.0000	0.0504356
607.5000	0.050637
607.0000	0.0508061
606.5000	0.0510462
606.0000	0.0511939
605.5000	0.0513947
605.0000	0.0515554
604.5000	0.0517623
604.0000	0.0519097
603.5000	0.0521482
603.0000	0.0522942
602.5000	0.0525379
602.0000	0.0527012
601.5000	0.052952
601.0000	0.0531318
600.5000	0.0534035
600.0000	0.0534875
599.5000	0.053775
599.0000	0.0539606
598.5000	0.0542427
598.0000	0.0544384
597.5000	0.0547436
597.0000	0.0549322
596.5000	0.0552436
596.0000	0.0554557
595.5000	0.055802
595.0000	0.0560221
594.5000	0.0563713
594.0000	0.056573
593.5000	0.0569483
593.0000	0.057202
592.5000	0.0575641
592.0000	0.0578068
591.5000	0.0581801
591.0000	0.0584366
590.5000	0.0588661
590.0000	0.0591453
589.5000	0.0595549
589.0000	0.0598387
588.5000	0.0602788
588.0000	0.0605793
587.5000	0.0610525
587.0000	0.0613332
586.5000	0.0618071
586.0000	0.0621441
585.5000	0.0626719
585.0000	0.0630419
584.5000	0.0636028
584.0000	0.0639732
583.5000	0.0645255
583.0000	0.0649249
582.5000	0.0655471
582.0000	0.0659677
581.5000	0.0666122
581.0000	0.0670418
580.5000	0.0677354
580.0000	0.0682096
579.5000	0.0689145
579.0000	0.0694032
578.5000	0.0701674
578.0000	0.0706661
577.5000	0.0714671
577.0000	0.072041
576.5000	0.0728926
576.0000	0.0734638
575.5000	0.0743369
575.0000	0.074963
574.5000	0.0759076
574.0000	0.0765547
573.5000	0.0775332
573.0000	0.0782319
572.5000	0.0792965
572.0000	0.0799978
571.5000	0.081114
571.0000	0.0818815
570.5000	0.0830606
570.0000	0.0838775
569.5000	0.0851176
569.0000	0.0859976
568.5000	0.0873225
568.0000	0.0882289
567.5000	0.0896425
567.0000	0.0906148
566.5000	0.0920939
566.0000	0.0930974
565.5000	0.0946343
565.0000	0.0957258
564.5000	0.0973529
564.0000	0.098459
563.5000	0.100153
563.0000	0.101318
562.5000	0.103124
562.0000	0.104347
561.5000	0.106221
561.0000	0.1075
560.5000	0.109475
560.0000	0.110825
559.5000	0.112926
559.0000	0.114356
558.5000	0.116515
558.0000	0.117999
557.5000	0.120272
557.0000	0.121851
556.5000	0.124252
556.0000	0.125894
555.5000	0.128396
555.0000	0.130105
554.5000	0.132752
554.0000	0.134527
553.5000	0.137251
553.0000	0.139079
552.5000	0.14193
552.0000	0.143842
551.5000	0.146783
551.0000	0.148773
550.5000	0.151829
550.0000	0.153899
549.5000	0.157015
549.0000	0.159139
548.5000	0.162385
548.0000	0.164566
547.5000	0.167915
547.0000	0.170173
546.5000	0.173595
546.0000	0.175891
545.5000	0.179408
545.0000	0.181752
544.5000	0.185319
544.0000	0.187723
543.5000	0.191347
543.0000	0.193785
542.5000	0.197453
542.0000	0.199908
541.5000	0.203568
541.0000	0.206029
540.5000	0.209718
540.0000	0.212191
539.5000	0.215869
539.0000	0.218298
538.5000	0.22194
538.0000	0.224341
537.5000	0.227901
537.0000	0.230259
536.5000	0.233749
536.0000	0.236074
535.5000	0.239487
535.0000	0.24173
534.5000	0.245008
534.0000	0.247168
533.5000	0.25029
533.0000	0.252333
532.5000	0.255327
532.0000	0.257262
531.5000	0.260066
531.0000	0.261855
530.5000	0.264428
530.0000	0.266088
529.5000	0.268428
529.0000	0.269886
528.5000	0.271997
528.0000	0.273323
527.5000	0.275159
527.0000	0.276299
526.5000	0.27786
526.0000	0.278821
525.5000	0.280102
525.0000	0.280861
524.5000	0.281885
524.0000	0.28247
523.5000	0.283207
523.0000	0.283598
522.5000	0.284083
522.0000	0.2843
521.5000	0.284504
521.0000	0.28455
520.5000	0.284529
520.0000	0.28428
519.5000	0.284016
519.0000	0.283738
518.5000	0.283231
518.0000	0.282837
517.5000	0.282124
517.0000	0.281594
516.5000	0.280707
516.0000	0.280052
515.5000	0.279025
515.0000	0.278243
514.5000	0.277031
514.0000	0.276172
513.5000	0.274804
513.0000	0.273839
512.5000	0.272376
512.0000	0.271367
511.5000	0.269834
511.0000	0.268773
510.5000	0.267137
510.0000	0.266032
509.5000	0.264356
509.0000	0.263201
508.5000	0.261452
508.0000	0.260267
507.5000	0.258479
507.0000	0.257292
506.5000	0.255495
506.0000	0.254295
505.5000	0.252454
505.0000	0.251214
504.5000	0.24936
504.0000	0.248119
503.5000	0.246301
503.0000	0.245075
502.5000	0.243232
502.0000	0.241992
501.5000	0.240165
501.0000	0.238952
500.5000	0.237091
500.0000	0.235865
499.5000	0.234047
499.0000	0.232826
498.5000	0.230999
498.0000	0.229798
497.5000	0.22802
497.0000	0.2268
496.5000	0.224986
496.0000	0.223785
495.5000	0.222007
495.0000	0.220809
494.5000	0.219017
494.0000	0.217813
493.5000	0.21602
493.0000	0.214833
492.5000	0.213048
492.0000	0.21185
491.5000	0.210083
491.0000	0.208883
490.5000	0.207069
490.0000	0.205854
489.5000	0.204058
489.0000	0.202846
488.5000	0.201035
488.0000	0.199837
487.5000	0.19805
487.0000	0.196849
486.5000	0.195036
486.0000	0.193831
485.5000	0.192035
485.0000	0.190843
484.5000	0.189041
484.0000	0.187848
483.5000	0.186094
483.0000	0.18492
482.5000	0.183171
482.0000	0.181991
481.5000	0.18024
481.0000	0.179095
480.5000	0.177375
480.0000	0.17623
479.5000	0.174533
479.0000	0.173409
478.5000	0.171714
478.0000	0.170592
477.5000	0.16896
477.0000	0.167878
476.5000	0.166265
476.0000	0.16519
475.5000	0.163673
475.0000	0.162687
474.5000	0.161154
474.0000	0.160155
473.5000	0.158707
473.0000	0.157786
472.5000	0.156404
472.0000	0.155491
471.5000	0.154196
471.0000	0.153365
470.5000	0.152106
470.0000	0.151309
469.5000	0.150138
469.0000	0.149386
468.5000	0.148279
468.0000	0.147589
467.5000	0.146614
467.0000	0.145985
466.5000	0.145054
466.0000	0.144486
465.5000	0.143715
465.0000	0.143211
464.5000	0.142493
464.0000	0.142068
463.5000	0.141484
463.0000	0.141115
462.5000	0.140603
462.0000	0.140306
461.5000	0.139892
461.0000	0.13967
460.5000	0.139334
460.0000	0.139163
459.5000	0.138931
459.0000	0.138825
458.5000	0.138676
458.0000	0.138582
457.5000	0.138472
457.0000	0.138417
456.5000	0.138372
456.0000	0.138343
455.5000	0.138285
455.0000	0.138279
454.5000	0.13826
454.0000	0.138239
453.5000	0.138154
453.0000	0.13811
452.5000	0.137996
452.0000	0.137891
451.5000	0.137695
451.0000	0.13755
450.5000	0.137304
450.0000	0.13708
449.5000	0.136714
449.0000	0.136449
448.5000	0.135984
448.0000	0.135638
447.5000	0.135056
447.0000	0.134641
446.5000	0.133956
446.0000	0.133476
445.5000	0.13269
445.0000	0.132169
444.5000	0.131336
444.0000	0.130765
443.5000	0.129907
443.0000	0.129302
442.5000	0.128417
442.0000	0.127817
441.5000	0.126875
441.0000	0.126269
440.5000	0.12538
440.0000	0.124814
439.5000	0.123964
439.0000	0.123427
438.5000	0.122666
438.0000	0.122154
437.5000	0.121403
437.0000	0.120914
436.5000	0.120276
436.0000	0.119858
435.5000	0.119255
435.0000	0.118897
434.5000	0.118442
434.0000	0.118155
433.5000	0.117681
433.0000	0.117423
432.5000	0.117103
432.0000	0.116922
431.5000	0.116626
431.0000	0.116439
430.5000	0.116245
430.0000	0.116114
429.5000	0.11592
429.0000	0.115785
428.5000	0.115646
428.0000	0.115561
427.5000	0.115414
427.0000	0.115329
426.5000	0.115172
426.0000	0.115059
425.5000	0.114823
425.0000	0.114671
424.5000	0.114468
424.0000	0.114286
423.5000	0.113967
423.0000	0.113719
422.5000	0.113388
422.0000	0.113111
421.5000	0.112637
421.0000	0.112271
420.5000	0.111791
420.0000	0.111327
419.5000	0.110777
419.0000	0.11037
418.5000	0.109745
418.0000	0.109294
417.5000	0.10865
417.0000	0.10818
416.5000	0.107492
416.0000	0.106993
415.5000	0.106282
415.0000	0.10589
414.5000	0.105205
414.0000	0.104747
413.5000	0.104043
413.0000	0.103602
412.5000	0.102976
412.0000	0.102545
411.5000	0.102005
411.0000	0.101628
410.5000	0.101057
410.0000	0.100686
409.5000	0.100224
409.0000	0.0999048
408.5000	0.0994112
408.0000	0.0991255
407.5000	0.0987185
407.0000	0.0985066
406.5000	0.0981631
406.0000	0.0979552
405.5000	0.0976771
405.0000	0.0975046
404.5000	0.0972904
404.0000	0.0971514
403.5000	0.0969984
403.0000	0.096879
402.5000	0.0967338
402.0000	0.0966373
401.5000	0.096534
401.0000	0.0964638
400.5000	0.0964095
400.0000	0.0963159
399.5000	0.0962586
399.0000	0.0962312
398.5000	0.0962249
398.0000	0.096174
397.5000	0.0961561
397.0000	0.0961684
396.5000	0.0961481
396.0000	0.0961891
395.5000	0.0962209
395.0000	0.0962812
394.5000	0.0963451
394.0000	0.0963918
393.5000	0.0964558
393.0000	0.0965414
392.5000	0.0966535
392.0000	0.0966996
391.5000	0.0968503
391.0000	0.0969354
390.5000	0.09716
390.0000	0.0973078
389.5000	0.0975414
389.0000	0.0977436
388.5000	0.0980238
388.0000	0.0982109
387.5000	0.0985455
387.0000	0.0988381
386.5000	0.0992321
386.0000	0.0994691
385.5000	0.0999432
385.0000	0.100256
384.5000	0.100734
384.0000	0.10105
383.5000	0.101589
383.0000	0.101951
382.5000	0.102538
382.0000	0.102909
381.5000	0.103482
381.0000	0.103892
380.5000	0.10453
380.0000	0.104952
379.5000	0.105647
379.0000	0.106092
378.5000	0.106869
378.0000	0.107411
377.5000	0.108194
377.0000	0.10873
376.5000	0.109568
376.0000	0.110144
375.5000	0.111049
375.0000	0.111659
374.5000	0.112658
374.0000	0.113295
373.5000	0.114293
373.0000	0.114966
372.5000	0.116086
372.0000	0.116769
371.5000	0.117793
371.0000	0.118496
370.5000	0.119673
370.0000	0.120597
369.5000	0.121725
369.0000	0.12245
368.5000	0.123564
368.0000	0.124327
367.5000	0.125425
367.0000	0.12615
366.5000	0.127347
366.0000	0.128072
365.5000	0.12919
365.0000	0.129893
364.5000	0.131093
364.0000	0.131846
363.5000	0.132883
363.0000	0.133639
362.5000	0.134687
362.0000	0.135333
361.5000	0.136245
361.0000	0.136852
360.5000	0.1378
360.0000	0.138365
359.5000	0.139117
359.0000	0.139607
358.5000	0.140367
358.0000	0.140737
357.5000	0.141221
357.0000	0.141616
356.5000	0.142068
356.0000	0.142376
355.5000	0.142818
355.0000	0.143094
354.5000	0.143472
354.0000	0.143635
353.5000	0.143866
353.0000	0.143996
352.5000	0.14419
352.0000	0.144254
351.5000	0.144289
351.0000	0.144373
350.5000	0.144323
350.0000	0.14435
349.5000	0.144223
349.0000	0.144109
348.5000	0.143963
348.0000	0.143853
347.5000	0.143603
347.0000	0.143449
346.5000	0.143292
346.0000	0.143161
345.5000	0.142912
345.0000	0.142737
344.5000	0.142427
344.0000	0.142258
343.5000	0.141962
343.0000	0.141834
342.5000	0.14148
342.0000	0.141194
341.5000	0.140807
341.0000	0.140539
340.5000	0.140168
340.0000	0.140367
339.5000	0.139988
339.0000	0.13976
338.5000	0.13936
338.0000	0.139071
337.5000	0.138622
337.0000	0.13839
336.5000	0.138028
336.0000	0.137699
335.5000	0.137244
335.0000	0.136917
334.5000	0.13652
334.0000	0.13628
333.5000	0.135833
333.0000	0.135524
332.5000	0.135088
332.0000	0.134799
331.5000	0.134394
331.0000	0.134116
330.5000	0.133808
330.0000	0.13358
329.5000	0.133344
329.0000	0.133135
328.5000	0.132962
328.0000	0.132903
327.5000	0.132832
327.0000	0.132783
326.5000	0.132768
326.0000	0.132782
325.5000	0.132889
325.0000	0.133012
324.5000	0.133231
324.0000	0.133389
323.5000	0.133647
323.0000	0.133826
322.5000	0.134194
322.0000	0.134448
321.5000	0.134889
321.0000	0.13524
320.5000	0.13587
320.0000	0.136229
319.5000	0.136848
319.0000	0.137349
318.5000	0.138046
318.0000	0.138523
317.5000	0.139277
317.0000	0.139831
316.5000	0.140731
316.0000	0.141251
315.5000	0.142076
315.0000	0.142673
314.5000	0.143504
314.0000	0.14404
313.5000	0.144925
313.0000	0.145482
312.5000	0.146311
312.0000	0.146807
311.5000	0.147552
311.0000	0.148027
310.5000	0.148765
310.0000	0.149285
309.5000	0.150065
309.0000	0.150503
308.5000	0.151238
308.0000	0.151686
307.5000	0.152362
307.0000	0.152786
306.5000	0.153461
306.0000	0.153825
305.5000	0.154538
305.0000	0.155046
304.5000	0.155752
304.0000	0.156214
303.5000	0.156789
303.0000	0.157212
302.5000	0.157958
302.0000	0.158414
301.5000	0.15912
301.0000	0.159589
300.5000	0.16027
300.0000	0.160771

##### Extended Information
[コメント情報]
試料名
コメント
測定者
所属
会社	関西大学　化学生命工学部

[データ情報]
作成日時	2014/04/04 17:33

データタイプ	等間隔データ
横軸	Wavelength [nm]
縦軸	Abs
スタート	700 nm
エンド	300 nm
データ間隔	0.5 nm
データ数	801     

[測定情報]
装置名	V-670
機種名	V-670
シリアル番号	B118261154

付属品名	USE-753
付属品シリアルNo.	B118261154
  セル長	0.1 mm

測定日時	2014/04/04 17:33

測光モード	Abs
測定範囲	700 - 300 nm
データ取込間隔	0.5 nm
UV/Vis バンド幅	1.0 nm
NIR バンド幅	8.0 nm
レスポンス	Medium
走査速度	400 nm/min
光源切換	340 nm
回折格子切換	850 nm
光源	D2/WI
フィルタ切換	ステップ
補正	ベースライン

