TITLE	
DATA TYPE	ULTRAVIOLET SPECTRUM
ORIGIN	JASCO
OWNER	
DATE	14/04/15
TIME	19:09:59
SPECTROMETER/DATA SYSTEM	
LOCALE	1041
RESOLUTION	
DELTAX	-0.5
XUNITS	NANOMETERS
YUNITS	ABSORBANCE
FIRSTX	  700.0000
LASTX	  300.0000
NPOINTS	     801
FIRSTY	     0.00350
MAXY	     0.92090
MINY	     0.00328
XYDATA
700.0000	0.00349847
699.5000	0.00352702
699.0000	0.0035296
698.5000	0.00355421
698.0000	0.00356535
697.5000	0.00360092
697.0000	0.00359746
696.5000	0.00357527
696.0000	0.00357947
695.5000	0.0036195
695.0000	0.00364134
694.5000	0.0036761
694.0000	0.00367499
693.5000	0.0036963
693.0000	0.00369601
692.5000	0.00367972
692.0000	0.00367711
691.5000	0.00369558
691.0000	0.0036761
690.5000	0.00364985
690.0000	0.0036313
689.5000	0.00360884
689.0000	0.00358929
688.5000	0.0035503
688.0000	0.00355188
687.5000	0.00356913
687.0000	0.00354201
686.5000	0.00352214
686.0000	0.00350204
685.5000	0.00349254
685.0000	0.00346099
684.5000	0.00345046
684.0000	0.00344773
683.5000	0.00343909
683.0000	0.00345021
682.5000	0.00343363
682.0000	0.00339632
681.5000	0.00331849
681.0000	0.00327669
680.5000	0.00333466
680.0000	0.00332375
679.5000	0.00333527
679.0000	0.00332079
678.5000	0.00333119
678.0000	0.00332167
677.5000	0.00337567
677.0000	0.00339585
676.5000	0.00340028
676.0000	0.00339765
675.5000	0.00344881
675.0000	0.0034732
674.5000	0.00351048
674.0000	0.00347969
673.5000	0.00345204
673.0000	0.00345208
672.5000	0.00343746
672.0000	0.00344824
671.5000	0.00347651
671.0000	0.00346305
670.5000	0.00344397
670.0000	0.00343128
669.5000	0.00345114
669.0000	0.00344655
668.5000	0.00344716
668.0000	0.00346155
667.5000	0.00344576
667.0000	0.00346123
666.5000	0.00349263
666.0000	0.00349705
665.5000	0.00347433
665.0000	0.0034718
664.5000	0.00349695
664.0000	0.00351639
663.5000	0.00353577
663.0000	0.00351621
662.5000	0.0035485
662.0000	0.00355192
661.5000	0.00354136
661.0000	0.00354499
660.5000	0.00355603
660.0000	0.00354288
659.5000	0.00357528
659.0000	0.00358936
658.5000	0.00358164
658.0000	0.00357637
657.5000	0.00357437
657.0000	0.00355672
656.5000	0.0035801
656.0000	0.00357472
655.5000	0.00358562
655.0000	0.00361723
654.5000	0.00366635
654.0000	0.00368163
653.5000	0.00368366
653.0000	0.00369887
652.5000	0.0037429
652.0000	0.00373439
651.5000	0.00374657
651.0000	0.00378708
650.5000	0.003844
650.0000	0.00387363
649.5000	0.00388622
649.0000	0.00388851
648.5000	0.00392835
648.0000	0.00393936
647.5000	0.00394988
647.0000	0.00396005
646.5000	0.00400831
646.0000	0.00402509
645.5000	0.00406823
645.0000	0.00406932
644.5000	0.00409764
644.0000	0.00409784
643.5000	0.00409769
643.0000	0.00411152
642.5000	0.00413901
642.0000	0.004154
641.5000	0.00417481
641.0000	0.00417348
640.5000	0.00418653
640.0000	0.00420073
639.5000	0.00420056
639.0000	0.00422941
638.5000	0.00427613
638.0000	0.00427629
637.5000	0.00430411
637.0000	0.00431814
636.5000	0.00439254
636.0000	0.00439744
635.5000	0.00440971
635.0000	0.00443616
634.5000	0.00449116
634.0000	0.00452371
633.5000	0.00455949
633.0000	0.00458966
632.5000	0.00464835
632.0000	0.00467353
631.5000	0.00472061
631.0000	0.0047362
630.5000	0.00479019
630.0000	0.00479259
629.5000	0.00483067
629.0000	0.00486397
628.5000	0.00492612
628.0000	0.00493637
627.5000	0.00497919
627.0000	0.00500466
626.5000	0.00505562
626.0000	0.0050619
625.5000	0.00508577
625.0000	0.00512364
624.5000	0.00516494
624.0000	0.00520588
623.5000	0.00526149
623.0000	0.00532243
622.5000	0.00540657
622.0000	0.00543436
621.5000	0.00548054
621.0000	0.00552693
620.5000	0.00559427
620.0000	0.00564093
619.5000	0.00572427
619.0000	0.00578476
618.5000	0.0058865
618.0000	0.00595195
617.5000	0.00602047
617.0000	0.00604649
616.5000	0.00611654
616.0000	0.00613327
615.5000	0.00622868
615.0000	0.00629742
614.5000	0.00636601
614.0000	0.00640257
613.5000	0.00647415
613.0000	0.00650858
612.5000	0.00658527
612.0000	0.0066142
611.5000	0.00668943
611.0000	0.00674365
610.5000	0.00681353
610.0000	0.00687082
609.5000	0.00696574
609.0000	0.00701421
608.5000	0.00708262
608.0000	0.00712605
607.5000	0.00721796
607.0000	0.00725727
606.5000	0.00735893
606.0000	0.00741348
605.5000	0.00748829
605.0000	0.00754547
604.5000	0.00764183
604.0000	0.00770601
603.5000	0.00779597
603.0000	0.00784313
602.5000	0.00795661
602.0000	0.00802391
601.5000	0.00812205
601.0000	0.00818991
600.5000	0.00828967
600.0000	0.00832213
599.5000	0.00840745
599.0000	0.00846016
598.5000	0.00856163
598.0000	0.00863853
597.5000	0.00876023
597.0000	0.00881736
596.5000	0.00893429
596.0000	0.00901122
595.5000	0.009156
595.0000	0.00924224
594.5000	0.00936705
594.0000	0.00944627
593.5000	0.00957167
593.0000	0.00965539
592.5000	0.00981268
592.0000	0.00991708
591.5000	0.0100562
591.0000	0.0101446
590.5000	0.0102942
590.0000	0.0103935
589.5000	0.0105531
589.0000	0.0106507
588.5000	0.0108147
588.0000	0.010922
587.5000	0.0110621
587.0000	0.0111848
586.5000	0.0113736
586.0000	0.0114714
585.5000	0.011621
585.0000	0.011705
584.5000	0.0118657
584.0000	0.0119969
583.5000	0.0121534
583.0000	0.0122857
582.5000	0.0124568
582.0000	0.0125752
581.5000	0.0127498
581.0000	0.0128836
580.5000	0.0130321
580.0000	0.0131638
579.5000	0.0133713
579.0000	0.0134973
578.5000	0.0136971
578.0000	0.0138665
577.5000	0.0140473
577.0000	0.0141803
576.5000	0.0143662
576.0000	0.0145119
575.5000	0.0147047
575.0000	0.0148476
574.5000	0.0150695
574.0000	0.0152288
573.5000	0.0154386
573.0000	0.0155759
572.5000	0.0157911
572.0000	0.0159698
571.5000	0.0162088
571.0000	0.0163905
570.5000	0.016629
570.0000	0.0168023
569.5000	0.0170327
569.0000	0.0172052
568.5000	0.0174485
568.0000	0.0176303
567.5000	0.0178958
567.0000	0.0180639
566.5000	0.0183034
566.0000	0.0184773
565.5000	0.0187454
565.0000	0.0189046
564.5000	0.0191569
564.0000	0.0193263
563.5000	0.0195975
563.0000	0.0197741
562.5000	0.0200324
562.0000	0.0201926
561.5000	0.0204432
561.0000	0.0206134
560.5000	0.0208994
560.0000	0.0210993
559.5000	0.021351
559.0000	0.0215193
558.5000	0.0217724
558.0000	0.0219651
557.5000	0.0222531
557.0000	0.0224235
556.5000	0.0227061
556.0000	0.0228934
555.5000	0.0231686
555.0000	0.0233422
554.5000	0.0236088
554.0000	0.0237649
553.5000	0.0240353
553.0000	0.0242016
552.5000	0.0244422
552.0000	0.0246221
551.5000	0.024867
551.0000	0.0249982
550.5000	0.0252179
550.0000	0.025356
549.5000	0.025586
549.0000	0.025737
548.5000	0.025945
548.0000	0.0260895
547.5000	0.0263339
547.0000	0.0264706
546.5000	0.026674
546.0000	0.026802
545.5000	0.0270231
545.0000	0.0271148
544.5000	0.0273097
544.0000	0.0274454
543.5000	0.0276437
543.0000	0.0277568
542.5000	0.0279151
542.0000	0.028026
541.5000	0.0281414
541.0000	0.0282073
540.5000	0.0283199
540.0000	0.0283877
539.5000	0.0285008
539.0000	0.0285291
538.5000	0.0286301
538.0000	0.02864
537.5000	0.0286948
537.0000	0.0287266
536.5000	0.0287425
536.0000	0.0287623
535.5000	0.0287993
535.0000	0.0288102
534.5000	0.0287921
534.0000	0.0287755
533.5000	0.0287572
533.0000	0.0287345
532.5000	0.0287093
532.0000	0.0286635
531.5000	0.0286341
531.0000	0.0285881
530.5000	0.0285072
530.0000	0.0284483
529.5000	0.0283586
529.0000	0.028295
528.5000	0.0282122
528.0000	0.0281265
527.5000	0.0280282
527.0000	0.0279495
526.5000	0.0278248
526.0000	0.0277304
525.5000	0.0275968
525.0000	0.0274988
524.5000	0.0273258
524.0000	0.0272216
523.5000	0.0270671
523.0000	0.0269564
522.5000	0.0267587
522.0000	0.0266234
521.5000	0.0264482
521.0000	0.026327
520.5000	0.0261289
520.0000	0.02595
519.5000	0.0257595
519.0000	0.0256334
518.5000	0.0254451
518.0000	0.0253242
517.5000	0.0250769
517.0000	0.0249275
516.5000	0.024703
516.0000	0.0245688
515.5000	0.0243379
515.0000	0.0241972
514.5000	0.0239749
514.0000	0.0238083
513.5000	0.023591
513.0000	0.0234591
512.5000	0.0232377
512.0000	0.0230816
511.5000	0.0228682
511.0000	0.022751
510.5000	0.0225266
510.0000	0.0223764
509.5000	0.0221563
509.0000	0.022008
508.5000	0.0217666
508.0000	0.0216117
507.5000	0.0214303
507.0000	0.0212839
506.5000	0.0210661
506.0000	0.0209357
505.5000	0.0207032
505.0000	0.0205938
504.5000	0.0203686
504.0000	0.0202315
503.5000	0.0200389
503.0000	0.0198747
502.5000	0.0196562
502.0000	0.0195435
501.5000	0.0193421
501.0000	0.0192005
500.5000	0.0189973
500.0000	0.0188531
499.5000	0.0186712
499.0000	0.0185201
498.5000	0.0183214
498.0000	0.0181979
497.5000	0.0180113
497.0000	0.0178738
496.5000	0.0176981
496.0000	0.0175973
495.5000	0.0174032
495.0000	0.0172594
494.5000	0.0170876
494.0000	0.0169786
493.5000	0.016821
493.0000	0.016712
492.5000	0.0166053
492.0000	0.0165212
491.5000	0.0163657
491.0000	0.0162544
490.5000	0.0161471
490.0000	0.0160711
489.5000	0.0159461
489.0000	0.0158536
488.5000	0.0157722
488.0000	0.015691
487.5000	0.0155628
487.0000	0.0154802
486.5000	0.015356
486.0000	0.0152557
485.5000	0.0151555
485.0000	0.0150883
484.5000	0.0150003
484.0000	0.0149387
483.5000	0.0148102
483.0000	0.0147514
482.5000	0.014697
482.0000	0.0146403
481.5000	0.0145942
481.0000	0.0145566
480.5000	0.0145256
480.0000	0.0145017
479.5000	0.0144842
479.0000	0.0144545
478.5000	0.0144461
478.0000	0.0144629
477.5000	0.0145151
477.0000	0.0145395
476.5000	0.014607
476.0000	0.0146402
475.5000	0.0147284
475.0000	0.0147952
474.5000	0.0149629
474.0000	0.0150775
473.5000	0.0152709
473.0000	0.0154007
472.5000	0.0156543
472.0000	0.015857
471.5000	0.0161687
471.0000	0.0164053
470.5000	0.0168146
470.0000	0.0171007
469.5000	0.0176451
469.0000	0.0180597
468.5000	0.0187012
468.0000	0.0191774
467.5000	0.020004
467.0000	0.0205937
466.5000	0.0216194
466.0000	0.0223725
465.5000	0.0236129
465.0000	0.0244848
464.5000	0.0259735
464.0000	0.0270622
463.5000	0.0288621
463.0000	0.030133
462.5000	0.0322152
462.0000	0.03373
461.5000	0.0361874
461.0000	0.0379238
460.5000	0.040776
460.0000	0.0427639
459.5000	0.0459223
459.0000	0.0481067
458.5000	0.0515647
458.0000	0.0539501
457.5000	0.0575718
457.0000	0.0600086
456.5000	0.0636795
456.0000	0.0660704
455.5000	0.0695346
455.0000	0.0717037
454.5000	0.0747493
454.0000	0.0765612
453.5000	0.0789852
453.0000	0.0803503
452.5000	0.082088
452.0000	0.0829444
451.5000	0.0838428
451.0000	0.08419
450.5000	0.0843265
450.0000	0.0841451
449.5000	0.0836111
449.0000	0.0830441
448.5000	0.0819553
448.0000	0.0810742
447.5000	0.0795738
447.0000	0.0784945
446.5000	0.0767625
446.0000	0.0755224
445.5000	0.0736739
445.0000	0.0724043
444.5000	0.070404
444.0000	0.0690719
443.5000	0.0670786
443.0000	0.0657396
442.5000	0.0637413
442.0000	0.0624605
441.5000	0.060619
441.0000	0.0594313
440.5000	0.057747
440.0000	0.0566579
439.5000	0.0551414
439.0000	0.0541833
438.5000	0.0529346
438.0000	0.0522196
437.5000	0.051345
437.0000	0.0508653
436.5000	0.0503637
436.0000	0.0501528
435.5000	0.0500475
435.0000	0.0500858
434.5000	0.0504106
434.0000	0.0507288
433.5000	0.0514951
433.0000	0.0521394
432.5000	0.0532628
432.0000	0.0541325
431.5000	0.0555946
431.0000	0.0566212
430.5000	0.0583015
430.0000	0.0594679
429.5000	0.0612485
429.0000	0.0624456
428.5000	0.0642374
428.0000	0.0653878
427.5000	0.0669725
427.0000	0.0679251
426.5000	0.0692055
426.0000	0.070003
425.5000	0.0708721
425.0000	0.071353
424.5000	0.0718441
424.0000	0.0720229
423.5000	0.0720557
423.0000	0.0719324
422.5000	0.0714802
422.0000	0.0710429
421.5000	0.0702165
421.0000	0.0695181
420.5000	0.0683183
420.0000	0.0676619
419.5000	0.0662049
419.0000	0.0651616
418.5000	0.0635493
418.0000	0.0623729
417.5000	0.0605989
417.0000	0.0593986
416.5000	0.0576223
416.0000	0.056453
415.5000	0.0546864
415.0000	0.0535224
414.5000	0.0518297
414.0000	0.0507685
413.5000	0.04923
413.0000	0.0482498
412.5000	0.046909
412.0000	0.0460972
411.5000	0.0450062
411.0000	0.0443371
410.5000	0.0434683
410.0000	0.0429529
409.5000	0.0422775
409.0000	0.041901
408.5000	0.0414816
408.0000	0.0413173
407.5000	0.0411549
407.0000	0.0410727
406.5000	0.0410531
406.0000	0.0411112
405.5000	0.0411836
405.0000	0.0412738
404.5000	0.0414082
404.0000	0.041525
403.5000	0.0416667
403.0000	0.0418075
402.5000	0.0419996
402.0000	0.0420578
401.5000	0.0420863
401.0000	0.0420342
400.5000	0.0419605
400.0000	0.0419258
399.5000	0.0417384
399.0000	0.0415395
398.5000	0.0412487
398.0000	0.0409887
397.5000	0.0405313
397.0000	0.0401966
396.5000	0.0395753
396.0000	0.0391651
395.5000	0.0385363
395.0000	0.0380946
394.5000	0.0374232
394.0000	0.0369486
393.5000	0.0361901
393.0000	0.035739
392.5000	0.0350347
392.0000	0.0345966
391.5000	0.0339918
391.0000	0.0335907
390.5000	0.0330083
390.0000	0.0326359
389.5000	0.0321428
389.0000	0.0318657
388.5000	0.0314407
388.0000	0.0312413
387.5000	0.0309208
387.0000	0.0307602
386.5000	0.0306012
386.0000	0.0305119
385.5000	0.0303541
385.0000	0.0303182
384.5000	0.0303479
384.0000	0.0304255
383.5000	0.0305781
383.0000	0.0306732
382.5000	0.0308076
382.0000	0.0309074
381.5000	0.0311071
381.0000	0.0312346
380.5000	0.031406
380.0000	0.0315261
379.5000	0.0317528
379.0000	0.0318831
378.5000	0.0320804
378.0000	0.0322064
377.5000	0.0323676
377.0000	0.0325412
376.5000	0.0326506
376.0000	0.0327971
375.5000	0.0330149
375.0000	0.0331428
374.5000	0.0333303
374.0000	0.0334237
373.5000	0.0336059
373.0000	0.0337453
372.5000	0.0340349
372.0000	0.0342017
371.5000	0.0344649
371.0000	0.0346693
370.5000	0.0349493
370.0000	0.0355464
369.5000	0.0358635
369.0000	0.0362053
368.5000	0.0365025
368.0000	0.0368415
367.5000	0.0372454
367.0000	0.0374624
366.5000	0.0378906
366.0000	0.0382582
365.5000	0.0387355
365.0000	0.0390904
364.5000	0.0395763
364.0000	0.0398709
363.5000	0.0404387
363.0000	0.0408925
362.5000	0.0414485
362.0000	0.0419067
361.5000	0.0425221
361.0000	0.0429168
360.5000	0.0435265
360.0000	0.0439427
359.5000	0.0444603
359.0000	0.0448869
358.5000	0.0455432
358.0000	0.0458889
357.5000	0.0464251
357.0000	0.0468199
356.5000	0.0473635
356.0000	0.0477862
355.5000	0.0483284
355.0000	0.0486745
354.5000	0.0492453
354.0000	0.0496885
353.5000	0.050142
353.0000	0.0504903
352.5000	0.0509818
352.0000	0.0512956
351.5000	0.0519094
351.0000	0.0521854
350.5000	0.0526439
350.0000	0.0529758
349.5000	0.0533902
349.0000	0.053773
348.5000	0.0542522
348.0000	0.054432
347.5000	0.0547895
347.0000	0.0552001
346.5000	0.0556804
346.0000	0.055967
345.5000	0.0563416
345.0000	0.056705
344.5000	0.0572821
344.0000	0.0576485
343.5000	0.058209
343.0000	0.0585591
342.5000	0.0590527
342.0000	0.0595077
341.5000	0.0602233
341.0000	0.0606366
340.5000	0.0614243
340.0000	0.0667633
339.5000	0.0675489
339.0000	0.0681542
338.5000	0.0691282
338.0000	0.0697127
337.5000	0.0708377
337.0000	0.0716251
336.5000	0.0728446
336.0000	0.0736483
335.5000	0.0750241
335.0000	0.0758854
334.5000	0.0773868
334.0000	0.0784068
333.5000	0.0802273
333.0000	0.0815495
332.5000	0.0835735
332.0000	0.084916
331.5000	0.087144
331.0000	0.0886579
330.5000	0.0912461
330.0000	0.0929607
329.5000	0.0958321
329.0000	0.0977696
328.5000	0.101102
328.0000	0.103395
327.5000	0.106946
327.0000	0.10942
326.5000	0.113381
326.0000	0.116216
325.5000	0.120787
325.0000	0.123957
324.5000	0.129
324.0000	0.132526
323.5000	0.138122
323.0000	0.142025
322.5000	0.148204
322.0000	0.152489
321.5000	0.159357
321.0000	0.164294
320.5000	0.171976
320.0000	0.177426
319.5000	0.185924
319.0000	0.191801
318.5000	0.201279
318.0000	0.207902
317.5000	0.218336
317.0000	0.225658
316.5000	0.237234
316.0000	0.245349
315.5000	0.258038
315.0000	0.266807
314.5000	0.280623
314.0000	0.290248
313.5000	0.305312
313.0000	0.315791
312.5000	0.332341
312.0000	0.343875
311.5000	0.361855
311.0000	0.374369
310.5000	0.393875
310.0000	0.407424
309.5000	0.428635
309.0000	0.443407
308.5000	0.466463
308.0000	0.482329
307.5000	0.507231
307.0000	0.524509
306.5000	0.551435
306.0000	0.570054
305.5000	0.599062
305.0000	0.619064
304.5000	0.650126
304.0000	0.671709
303.5000	0.70506
303.0000	0.728077
302.5000	0.763727
302.0000	0.788342
301.5000	0.826458
301.0000	0.852591
300.5000	0.893063
300.0000	0.9209

##### Extended Information
[コメント情報]
試料名
コメント
測定者
所属
会社	関西大学　化学生命工学部

[データ情報]
作成日時	2014/04/15 19:09

データタイプ	等間隔データ
横軸	Wavelength [nm]
縦軸	Abs
スタート	700 nm
エンド	300 nm
データ間隔	0.5 nm
データ数	801     

[測定情報]
装置名	V-670
機種名	V-670
シリアル番号	B118261154

付属品名	USE-753
付属品シリアルNo.	B118261154
  セル長	0.1 mm

測定日時	2014/04/15 19:09

測光モード	Abs
測定範囲	700 - 300 nm
データ取込間隔	0.5 nm
UV/Vis バンド幅	1.0 nm
NIR バンド幅	8.0 nm
レスポンス	Medium
走査速度	400 nm/min
光源切換	340 nm
回折格子切換	850 nm
光源	D2/WI
フィルタ切換	ステップ
補正	ベースライン

