TITLE	
DATA TYPE	ULTRAVIOLET SPECTRUM
ORIGIN	JASCO
OWNER	
DATE	14/03/18
TIME	18:30:12
SPECTROMETER/DATA SYSTEM	
LOCALE	1041
RESOLUTION	
DELTAX	-0.5
XUNITS	NANOMETERS
YUNITS	ABSORBANCE
FIRSTX	  700.0000
LASTX	  300.0000
NPOINTS	     801
FIRSTY	     0.00350
MAXY	     0.39151
MINY	     0.00314
XYDATA
700.0000	0.00349664
699.5000	0.00351923
699.0000	0.00352272
698.5000	0.00353588
698.0000	0.00355096
697.5000	0.0035768
697.0000	0.00358162
696.5000	0.0036041
696.0000	0.00361144
695.5000	0.00362274
695.0000	0.00363004
694.5000	0.00364729
694.0000	0.00363703
693.5000	0.0036443
693.0000	0.00364549
692.5000	0.00364934
692.0000	0.00365107
691.5000	0.00363513
691.0000	0.00360351
690.5000	0.0035967
690.0000	0.00355896
689.5000	0.00354221
689.0000	0.00353133
688.5000	0.00349878
688.0000	0.0034808
687.5000	0.00345072
687.0000	0.00342594
686.5000	0.00338171
686.0000	0.00337165
685.5000	0.0033455
685.0000	0.00334744
684.5000	0.00334738
684.0000	0.00333383
683.5000	0.00334058
683.0000	0.00332416
682.5000	0.00333206
682.0000	0.00333193
681.5000	0.00328327
681.0000	0.00328316
680.5000	0.00330844
680.0000	0.00332132
679.5000	0.0033162
679.0000	0.00332441
678.5000	0.00330796
678.0000	0.00331357
677.5000	0.00331387
677.0000	0.00330162
676.5000	0.0033076
676.0000	0.00329415
675.5000	0.00331698
675.0000	0.0033449
674.5000	0.0033498
674.0000	0.00336181
673.5000	0.00337343
673.0000	0.0033612
672.5000	0.00334772
672.0000	0.00336331
671.5000	0.00336157
671.0000	0.0033258
670.5000	0.00332052
670.0000	0.00332161
669.5000	0.00330406
669.0000	0.00329464
668.5000	0.00326515
668.0000	0.00324554
667.5000	0.00321552
667.0000	0.00319728
666.5000	0.00319163
666.0000	0.00317363
665.5000	0.00315431
665.0000	0.00313912
664.5000	0.0031585
664.0000	0.00315483
663.5000	0.00316123
663.0000	0.00316913
662.5000	0.0031741
662.0000	0.00318143
661.5000	0.00318604
661.0000	0.00317494
660.5000	0.00318449
660.0000	0.0031955
659.5000	0.00321379
659.0000	0.00321644
658.5000	0.00322866
658.0000	0.00323179
657.5000	0.00322197
657.0000	0.0032274
656.5000	0.00319731
656.0000	0.00320376
655.5000	0.00320551
655.0000	0.00321971
654.5000	0.00323792
654.0000	0.00324586
653.5000	0.00325063
653.0000	0.00325539
652.5000	0.00324297
652.0000	0.00323767
651.5000	0.00325414
651.0000	0.00326176
650.5000	0.00325135
650.0000	0.00326304
649.5000	0.00325962
649.0000	0.00325863
648.5000	0.00325032
648.0000	0.0032578
647.5000	0.0032504
647.0000	0.0032649
646.5000	0.00327641
646.0000	0.00329191
645.5000	0.00330807
645.0000	0.00331983
644.5000	0.00334131
644.0000	0.00335424
643.5000	0.00338246
643.0000	0.00339189
642.5000	0.0034021
642.0000	0.00340898
641.5000	0.00344741
641.0000	0.00347532
640.5000	0.00349624
640.0000	0.00351049
639.5000	0.00354148
639.0000	0.00355307
638.5000	0.00357316
638.0000	0.00359262
637.5000	0.00362283
637.0000	0.00363536
636.5000	0.00367883
636.0000	0.00370192
635.5000	0.00372741
635.0000	0.00372961
634.5000	0.00376455
634.0000	0.00378872
633.5000	0.00381372
633.0000	0.00381964
632.5000	0.0038623
632.0000	0.00387328
631.5000	0.00390642
631.0000	0.00393812
630.5000	0.00400122
630.0000	0.00401311
629.5000	0.00405462
629.0000	0.00406592
628.5000	0.00409287
628.0000	0.00413267
627.5000	0.00419216
627.0000	0.00421516
626.5000	0.00426759
626.0000	0.00429602
625.5000	0.00433985
625.0000	0.00435168
624.5000	0.00437412
624.0000	0.00438399
623.5000	0.00441126
623.0000	0.00445298
622.5000	0.00448976
622.0000	0.00450657
621.5000	0.00453177
621.0000	0.00454584
620.5000	0.00458235
620.0000	0.00460909
619.5000	0.00466026
619.0000	0.00469782
618.5000	0.00473275
618.0000	0.00477773
617.5000	0.00482452
617.0000	0.00486179
616.5000	0.0049047
616.0000	0.00495871
615.5000	0.00500513
615.0000	0.00502568
614.5000	0.00508873
614.0000	0.00511882
613.5000	0.00517143
613.0000	0.00520105
612.5000	0.00525537
612.0000	0.00530327
611.5000	0.00533231
611.0000	0.00536273
610.5000	0.00541865
610.0000	0.00547267
609.5000	0.00551482
609.0000	0.00556483
608.5000	0.00562173
608.0000	0.0056387
607.5000	0.00569193
607.0000	0.00571734
606.5000	0.00577131
606.0000	0.00580668
605.5000	0.0058522
605.0000	0.00588913
604.5000	0.00593944
604.0000	0.0059793
603.5000	0.00602967
603.0000	0.00606873
602.5000	0.00611234
602.0000	0.00614287
601.5000	0.00621856
601.0000	0.00626156
600.5000	0.00634746
600.0000	0.00627286
599.5000	0.00634176
599.0000	0.00636383
598.5000	0.00644423
598.0000	0.00650551
597.5000	0.00656562
597.0000	0.00659817
596.5000	0.00669256
596.0000	0.00672991
595.5000	0.00680634
595.0000	0.0068593
594.5000	0.0069483
594.0000	0.00698247
593.5000	0.00703934
593.0000	0.00709201
592.5000	0.00718874
592.0000	0.00722017
591.5000	0.00728311
591.0000	0.00732522
590.5000	0.00740591
590.0000	0.00744524
589.5000	0.00753134
589.0000	0.00759303
588.5000	0.00770008
588.0000	0.00776196
587.5000	0.00787148
587.0000	0.00793434
586.5000	0.0080449
586.0000	0.00811177
585.5000	0.00822318
585.0000	0.00831658
584.5000	0.00843315
584.0000	0.00851104
583.5000	0.00860294
583.0000	0.00868482
582.5000	0.00880057
582.0000	0.00886587
581.5000	0.00895621
581.0000	0.00903256
580.5000	0.00915956
580.0000	0.0092425
579.5000	0.00935904
579.0000	0.00944076
578.5000	0.00956135
578.0000	0.00964928
577.5000	0.00975327
577.0000	0.00982832
576.5000	0.00994941
576.0000	0.0100168
575.5000	0.0101505
575.0000	0.0102559
574.5000	0.0104144
574.0000	0.0104978
573.5000	0.0106297
573.0000	0.0107329
572.5000	0.010906
572.0000	0.0110045
571.5000	0.0111536
571.0000	0.0112648
570.5000	0.0114431
570.0000	0.0115549
569.5000	0.011733
569.0000	0.0118423
568.5000	0.0120107
568.0000	0.0121301
567.5000	0.0122911
567.0000	0.0124164
566.5000	0.0125748
566.0000	0.0126824
565.5000	0.0128573
565.0000	0.0129914
564.5000	0.0131994
564.0000	0.0133368
563.5000	0.0135322
563.0000	0.0136609
562.5000	0.0138827
562.0000	0.0140101
561.5000	0.0142072
561.0000	0.0143482
560.5000	0.0145698
560.0000	0.0147282
559.5000	0.0149486
559.0000	0.0150791
558.5000	0.0153105
558.0000	0.015444
557.5000	0.0156563
557.0000	0.0157836
556.5000	0.0160108
556.0000	0.0161605
555.5000	0.0164028
555.0000	0.016557
554.5000	0.0168058
554.0000	0.0169453
553.5000	0.0171557
553.0000	0.017328
552.5000	0.0175508
552.0000	0.0176824
551.5000	0.0179033
551.0000	0.0180693
550.5000	0.0182988
550.0000	0.0184365
549.5000	0.0186686
549.0000	0.0188081
548.5000	0.0189983
548.0000	0.0191222
547.5000	0.0193217
547.0000	0.0194397
546.5000	0.0196359
546.0000	0.0197738
545.5000	0.0199734
545.0000	0.0200849
544.5000	0.0202614
544.0000	0.0203921
543.5000	0.0205714
543.0000	0.02066
542.5000	0.0208007
542.0000	0.020936
541.5000	0.0210905
541.0000	0.0211656
540.5000	0.0213012
540.0000	0.021391
539.5000	0.0215184
539.0000	0.0215777
538.5000	0.0216725
538.0000	0.021728
537.5000	0.0218171
537.0000	0.0218605
536.5000	0.0219429
536.0000	0.0219681
535.5000	0.0220228
535.0000	0.0220689
534.5000	0.0221272
534.0000	0.022144
533.5000	0.0221601
533.0000	0.0221695
532.5000	0.0221831
532.0000	0.0221733
531.5000	0.022163
531.0000	0.022141
530.5000	0.0220875
530.0000	0.0220636
529.5000	0.0220358
529.0000	0.0219967
528.5000	0.0218978
528.0000	0.021857
527.5000	0.0217771
527.0000	0.0217101
526.5000	0.0216197
526.0000	0.0215582
525.5000	0.0214587
525.0000	0.0214031
524.5000	0.0213015
524.0000	0.0212143
523.5000	0.0210818
523.0000	0.0209796
522.5000	0.0208194
522.0000	0.0207414
521.5000	0.0206089
521.0000	0.0205243
520.5000	0.0203587
520.0000	0.020382
519.5000	0.0202484
519.0000	0.0201554
518.5000	0.0199723
518.0000	0.0198643
517.5000	0.0197006
517.0000	0.0195944
516.5000	0.0194186
516.0000	0.0193139
515.5000	0.0191361
515.0000	0.0190225
514.5000	0.018844
514.0000	0.0187293
513.5000	0.018582
513.0000	0.0184433
512.5000	0.0182633
512.0000	0.0181394
511.5000	0.017984
511.0000	0.0178726
510.5000	0.0176667
510.0000	0.0175669
509.5000	0.0174116
509.0000	0.0173039
508.5000	0.0171151
508.0000	0.0169971
507.5000	0.0168144
507.0000	0.0166928
506.5000	0.0165206
506.0000	0.0164182
505.5000	0.0162481
505.0000	0.0161504
504.5000	0.0159885
504.0000	0.0159117
503.5000	0.0157615
503.0000	0.0156625
502.5000	0.015513
502.0000	0.0154337
501.5000	0.0152988
501.0000	0.0151998
500.5000	0.0150531
500.0000	0.0149623
499.5000	0.0148486
499.0000	0.0147657
498.5000	0.0146551
498.0000	0.0145586
497.5000	0.0143937
497.0000	0.0143179
496.5000	0.0141771
496.0000	0.0140714
495.5000	0.0139503
495.0000	0.0138825
494.5000	0.0137945
494.0000	0.0137365
493.5000	0.0136055
493.0000	0.0135251
492.5000	0.0134284
492.0000	0.013349
491.5000	0.0132559
491.0000	0.013214
490.5000	0.0131359
490.0000	0.0130859
489.5000	0.0129971
489.0000	0.0129681
488.5000	0.0128654
488.0000	0.012794
487.5000	0.0127259
487.0000	0.0127341
486.5000	0.0126939
486.0000	0.0126308
485.5000	0.0125792
485.0000	0.0125626
484.5000	0.0125421
484.0000	0.0124988
483.5000	0.012478
483.0000	0.0124766
482.5000	0.0124912
482.0000	0.012502
481.5000	0.0125233
481.0000	0.0125453
480.5000	0.0125517
480.0000	0.0125759
479.5000	0.0126613
479.0000	0.0127319
478.5000	0.0128192
478.0000	0.0129023
477.5000	0.0130391
477.0000	0.0131595
476.5000	0.013297
476.0000	0.0134179
475.5000	0.0136392
475.0000	0.0138398
474.5000	0.014109
474.0000	0.0143179
473.5000	0.0146616
473.0000	0.014916
472.5000	0.0153221
472.0000	0.0156263
471.5000	0.0161189
471.0000	0.0165046
470.5000	0.0171485
470.0000	0.0176393
469.5000	0.0184052
469.0000	0.0189648
468.5000	0.0198817
468.0000	0.0205483
467.5000	0.0216571
467.0000	0.0224587
466.5000	0.0238054
466.0000	0.0247887
465.5000	0.0263817
465.0000	0.0275484
464.5000	0.0294827
464.0000	0.030851
463.5000	0.0330746
463.0000	0.0346859
462.5000	0.0373242
462.0000	0.0392081
461.5000	0.0421961
461.0000	0.0443459
460.5000	0.0477938
460.0000	0.050218
459.5000	0.0540678
459.0000	0.0567704
458.5000	0.0610044
458.0000	0.0639452
457.5000	0.0684793
457.0000	0.0715875
456.5000	0.0763422
456.0000	0.0795441
455.5000	0.0843403
455.0000	0.0875553
454.5000	0.092243
454.0000	0.095256
453.5000	0.0995258
453.0000	0.102162
452.5000	0.105878
452.0000	0.10811
451.5000	0.111006
451.0000	0.112651
450.5000	0.114712
450.0000	0.115776
449.5000	0.116865
449.0000	0.117288
448.5000	0.117504
448.0000	0.11736
447.5000	0.116755
447.0000	0.116103
446.5000	0.114843
446.0000	0.113786
445.5000	0.111939
445.0000	0.110557
444.5000	0.108337
444.0000	0.106715
443.5000	0.104174
443.0000	0.102412
442.5000	0.0997511
442.0000	0.0979246
441.5000	0.0952111
441.0000	0.0934142
440.5000	0.0907784
440.0000	0.0890649
439.5000	0.086574
439.0000	0.0850234
438.5000	0.0828114
438.0000	0.081483
437.5000	0.079651
437.0000	0.0785857
436.5000	0.0771851
436.0000	0.076427
435.5000	0.075547
435.0000	0.0751205
434.5000	0.0747693
434.0000	0.0747335
433.5000	0.0749697
433.0000	0.075328
432.5000	0.0761112
432.0000	0.0768195
431.5000	0.0781143
431.0000	0.0791181
430.5000	0.0808506
430.0000	0.0821626
429.5000	0.0842211
429.0000	0.0856876
428.5000	0.0879449
428.0000	0.0894738
427.5000	0.0917784
427.0000	0.0932355
426.5000	0.0954109
426.0000	0.0967852
425.5000	0.0986618
425.0000	0.0997787
424.5000	0.101224
424.0000	0.102018
423.5000	0.102935
423.0000	0.10336
422.5000	0.103655
422.0000	0.103694
421.5000	0.103446
421.0000	0.103039
420.5000	0.102159
420.0000	0.101402
419.5000	0.100009
419.0000	0.0989253
418.5000	0.0970632
418.0000	0.0957019
417.5000	0.0935532
417.0000	0.0920053
416.5000	0.0895929
416.0000	0.0879469
415.5000	0.0854229
415.0000	0.083728
414.5000	0.0811347
414.0000	0.0794043
413.5000	0.0768927
413.0000	0.0752797
412.5000	0.07294
412.0000	0.0714301
411.5000	0.069324
411.0000	0.068022
410.5000	0.0661997
410.0000	0.0650558
409.5000	0.0635224
409.0000	0.0626651
408.5000	0.0614237
408.0000	0.0607078
407.5000	0.0598846
407.0000	0.0594166
406.5000	0.0588575
406.0000	0.058563
405.5000	0.0582717
405.0000	0.0581308
404.5000	0.0579315
404.0000	0.057874
403.5000	0.0578768
403.0000	0.0578967
402.5000	0.0579179
402.0000	0.0579443
401.5000	0.0579886
401.0000	0.0579942
400.5000	0.0579398
400.0000	0.0578386
399.5000	0.057596
399.0000	0.0574003
398.5000	0.0570107
398.0000	0.0567038
397.5000	0.0561519
397.0000	0.0557078
396.5000	0.0549742
396.0000	0.0544134
395.5000	0.0535343
395.0000	0.0528636
394.5000	0.0518164
394.0000	0.0510612
393.5000	0.0499555
393.0000	0.0492045
392.5000	0.0480393
392.0000	0.0472514
391.5000	0.0461448
391.0000	0.0453611
390.5000	0.0442653
390.0000	0.0435185
389.5000	0.0424739
389.0000	0.0418092
388.5000	0.0408794
388.0000	0.040275
387.5000	0.0395048
387.0000	0.0390205
386.5000	0.038414
386.0000	0.0379803
385.5000	0.0374809
385.0000	0.0371187
384.5000	0.0367152
384.0000	0.036462
383.5000	0.0361226
383.0000	0.0359616
382.5000	0.0357643
382.0000	0.0356627
381.5000	0.0355203
381.0000	0.0354137
380.5000	0.0353014
380.0000	0.0352228
379.5000	0.0351461
379.0000	0.0350616
378.5000	0.0350082
378.0000	0.0349905
377.5000	0.0348913
377.0000	0.0348891
376.5000	0.0347662
376.0000	0.0347096
375.5000	0.0345792
375.0000	0.0345119
374.5000	0.034419
374.0000	0.0343583
373.5000	0.0341863
373.0000	0.0341312
372.5000	0.0340222
372.0000	0.033949
371.5000	0.0337888
371.0000	0.0337371
370.5000	0.0336612
370.0000	0.0337442
369.5000	0.0337526
369.0000	0.033763
368.5000	0.0338028
368.0000	0.0338095
367.5000	0.0338261
367.0000	0.0338213
366.5000	0.0339188
366.0000	0.0340744
365.5000	0.0341468
365.0000	0.0342367
364.5000	0.0343981
364.0000	0.0345093
363.5000	0.0347228
363.0000	0.0348512
362.5000	0.0351031
362.0000	0.035297
361.5000	0.0356026
361.0000	0.0358168
360.5000	0.0360666
360.0000	0.036247
359.5000	0.0364925
359.0000	0.0367123
358.5000	0.0369343
358.0000	0.0371305
357.5000	0.0374098
357.0000	0.0375216
356.5000	0.0377676
356.0000	0.0379671
355.5000	0.0382007
355.0000	0.0383112
354.5000	0.0385295
354.0000	0.0387114
353.5000	0.0388029
353.0000	0.0389341
352.5000	0.0390765
352.0000	0.0392483
351.5000	0.0394137
351.0000	0.0395765
350.5000	0.0397948
350.0000	0.0399107
349.5000	0.040048
349.0000	0.0401376
348.5000	0.0403264
348.0000	0.0404816
347.5000	0.0406597
347.0000	0.0408905
346.5000	0.041065
346.0000	0.0412243
345.5000	0.0413848
345.0000	0.0416147
344.5000	0.0418217
344.0000	0.041942
343.5000	0.0422282
343.0000	0.0423274
342.5000	0.0425126
342.0000	0.0427299
341.5000	0.0429764
341.0000	0.0431448
340.5000	0.0433811
340.0000	0.0453974
339.5000	0.045666
339.0000	0.0458967
338.5000	0.0462602
338.0000	0.0464336
337.5000	0.046723
337.0000	0.0470127
336.5000	0.0473898
336.0000	0.047709
335.5000	0.0481334
335.0000	0.0485584
334.5000	0.0491704
334.0000	0.0496631
333.5000	0.050306
333.0000	0.0508021
332.5000	0.0515223
332.0000	0.0520521
331.5000	0.0529677
331.0000	0.0536471
330.5000	0.0545845
330.0000	0.0553456
329.5000	0.056369
329.0000	0.0572028
328.5000	0.0584041
328.0000	0.0592975
327.5000	0.0606803
327.0000	0.0616964
326.5000	0.0632808
326.0000	0.0643845
325.5000	0.0660344
325.0000	0.0671493
324.5000	0.0690416
324.0000	0.0704469
323.5000	0.0726448
323.0000	0.0741438
322.5000	0.0765244
322.0000	0.0781886
321.5000	0.0808037
321.0000	0.0827052
320.5000	0.085613
320.0000	0.0876276
319.5000	0.090871
319.0000	0.0932251
318.5000	0.0969213
318.0000	0.0994726
317.5000	0.103437
317.0000	0.106232
316.5000	0.110708
316.0000	0.113781
315.5000	0.11864
315.0000	0.122073
314.5000	0.127399
314.0000	0.131165
313.5000	0.137074
313.0000	0.141235
312.5000	0.147689
312.0000	0.152161
311.5000	0.15931
311.0000	0.1642
310.5000	0.171951
310.0000	0.177267
309.5000	0.18576
309.0000	0.191692
308.5000	0.200919
308.0000	0.207312
307.5000	0.217317
307.0000	0.224272
306.5000	0.23529
306.0000	0.242885
305.5000	0.254792
305.0000	0.263009
304.5000	0.276024
304.0000	0.285035
303.5000	0.299054
303.0000	0.308753
302.5000	0.323856
302.0000	0.334326
301.5000	0.350576
301.0000	0.361815
300.5000	0.379448
300.0000	0.391512

##### Extended Information
[コメント情報]
試料名
コメント
測定者
所属
会社	関西大学　化学生命工学部

[データ情報]
作成日時	2014/03/18 18:30

データタイプ	等間隔データ
横軸	Wavelength [nm]
縦軸	Abs
スタート	700 nm
エンド	300 nm
データ間隔	0.5 nm
データ数	801     

[測定情報]
装置名	V-670
機種名	V-670
シリアル番号	B118261154

付属品名	USE-753
付属品シリアルNo.	B118261154
  セル長	0.1 mm

測定日時	2014/03/18 18:30

測光モード	Abs
測定範囲	700 - 300 nm
データ取込間隔	0.5 nm
UV/Vis バンド幅	1.0 nm
NIR バンド幅	8.0 nm
レスポンス	Medium
走査速度	400 nm/min
光源切換	340 nm
回折格子切換	850 nm
光源	D2/WI
フィルタ切換	ステップ
補正	ベースライン

