TITLE	
DATA TYPE	ULTRAVIOLET SPECTRUM
ORIGIN	JASCO
OWNER	
DATE	14/02/28
TIME	16:57:11
SPECTROMETER/DATA SYSTEM	
LOCALE	1041
RESOLUTION	
DELTAX	-0.5
XUNITS	NANOMETERS
YUNITS	ABSORBANCE
FIRSTX	  700.0000
LASTX	  300.0000
NPOINTS	     801
FIRSTY	     0.02339
MAXY	     1.03254
MINY	     0.02329
XYDATA
700.0000	0.0233918
699.5000	0.0234274
699.0000	0.0234134
698.5000	0.0234052
698.0000	0.0234228
697.5000	0.0234318
697.0000	0.0234329
696.5000	0.0234332
696.0000	0.0234102
695.5000	0.0234176
695.0000	0.02342
694.5000	0.0234412
694.0000	0.0234414
693.5000	0.0234229
693.0000	0.0234332
692.5000	0.02344
692.0000	0.0234273
691.5000	0.0234118
691.0000	0.0234045
690.5000	0.0233969
690.0000	0.0233924
689.5000	0.0233937
689.0000	0.0233881
688.5000	0.023372
688.0000	0.0233613
687.5000	0.0233435
687.0000	0.023317
686.5000	0.0233054
686.0000	0.023301
685.5000	0.0233039
685.0000	0.0232893
684.5000	0.0233016
684.0000	0.0233058
683.5000	0.0233181
683.0000	0.023339
682.5000	0.0233467
682.0000	0.0233521
681.5000	0.0233415
681.0000	0.0233576
680.5000	0.0233994
680.0000	0.0234067
679.5000	0.0234478
679.0000	0.0234715
678.5000	0.0235238
678.0000	0.0235378
677.5000	0.0235771
677.0000	0.0235845
676.5000	0.0236321
676.0000	0.0236632
675.5000	0.0237324
675.0000	0.0237854
674.5000	0.0238385
674.0000	0.0238598
673.5000	0.0238993
673.0000	0.0239318
672.5000	0.0240008
672.0000	0.0240314
671.5000	0.0240805
671.0000	0.0241279
670.5000	0.0241813
670.0000	0.0242222
669.5000	0.0242845
669.0000	0.0243247
668.5000	0.0243834
668.0000	0.0244341
667.5000	0.0245075
667.0000	0.0245638
666.5000	0.0246326
666.0000	0.0246589
665.5000	0.024723
665.0000	0.0247768
664.5000	0.0248725
664.0000	0.0249316
663.5000	0.025025
663.0000	0.0250795
662.5000	0.0251907
662.0000	0.0252627
661.5000	0.025346
661.0000	0.025409
660.5000	0.0255118
660.0000	0.0255964
659.5000	0.0257406
659.0000	0.0258433
658.5000	0.0259725
658.0000	0.0260452
657.5000	0.0262009
657.0000	0.0262828
656.5000	0.0264274
656.0000	0.0265348
655.5000	0.0267278
655.0000	0.0268415
654.5000	0.0270242
654.0000	0.0271524
653.5000	0.027348
653.0000	0.0274854
652.5000	0.0276888
652.0000	0.0278103
651.5000	0.0280258
651.0000	0.0281574
650.5000	0.0284057
650.0000	0.0285608
649.5000	0.0287794
649.0000	0.0289135
648.5000	0.0291503
648.0000	0.029299
647.5000	0.029542
647.0000	0.0296963
646.5000	0.0299384
646.0000	0.0301143
645.5000	0.0303868
645.0000	0.0305531
644.5000	0.0308483
644.0000	0.0310266
643.5000	0.0313269
643.0000	0.031519
642.5000	0.0318401
642.0000	0.0320408
641.5000	0.0323543
641.0000	0.0325466
640.5000	0.0328527
640.0000	0.0330657
639.5000	0.0333845
639.0000	0.0336027
638.5000	0.0339512
638.0000	0.034162
637.5000	0.0345052
637.0000	0.0347365
636.5000	0.0350826
636.0000	0.0353099
635.5000	0.0356845
635.0000	0.0359369
634.5000	0.0363242
634.0000	0.0365733
633.5000	0.0369656
633.0000	0.0372161
632.5000	0.0376211
632.0000	0.0378836
631.5000	0.0383126
631.0000	0.0385785
630.5000	0.0390061
630.0000	0.0392915
629.5000	0.0397364
629.0000	0.0400393
628.5000	0.0404703
628.0000	0.0407669
627.5000	0.0412467
627.0000	0.0415752
626.5000	0.0420479
626.0000	0.0423727
625.5000	0.0428609
625.0000	0.043193
624.5000	0.0436777
624.0000	0.0440083
623.5000	0.0445189
623.0000	0.0448438
622.5000	0.0453579
622.0000	0.0457033
621.5000	0.0462343
621.0000	0.0465687
620.5000	0.047093
620.0000	0.0474637
619.5000	0.0479994
619.0000	0.0483614
618.5000	0.0489167
618.0000	0.0492898
617.5000	0.0498575
617.0000	0.0502293
616.5000	0.0507999
616.0000	0.0511914
615.5000	0.051792
615.0000	0.0521662
614.5000	0.0527833
614.0000	0.0531773
613.5000	0.0537999
613.0000	0.0542006
612.5000	0.0548303
612.0000	0.0552357
611.5000	0.0558823
611.0000	0.056311
610.5000	0.0569638
610.0000	0.0574052
609.5000	0.0580719
609.0000	0.0585198
608.5000	0.059238
608.0000	0.0597092
607.5000	0.0604187
607.0000	0.0608834
606.5000	0.0616256
606.0000	0.0621131
605.5000	0.0628803
605.0000	0.0633753
604.5000	0.0641703
604.0000	0.0646978
603.5000	0.0654894
603.0000	0.0660104
602.5000	0.0668136
602.0000	0.0673363
601.5000	0.0681444
601.0000	0.0686946
600.5000	0.0695308
600.0000	0.0699822
599.5000	0.0708226
599.0000	0.0713881
598.5000	0.0722625
598.0000	0.0728536
597.5000	0.0737622
597.0000	0.07437
596.5000	0.0752768
596.0000	0.0758773
595.5000	0.0768229
595.0000	0.0774682
594.5000	0.0784498
594.0000	0.0791349
593.5000	0.0801641
593.0000	0.0808491
592.5000	0.0819139
592.0000	0.0826321
591.5000	0.0837294
591.0000	0.084472
590.5000	0.0856152
590.0000	0.0863969
589.5000	0.0875953
589.0000	0.088411
588.5000	0.0896493
588.0000	0.0904974
587.5000	0.0917681
587.0000	0.0926402
586.5000	0.0939965
586.0000	0.0949149
585.5000	0.0963156
585.0000	0.0972727
584.5000	0.098733
584.0000	0.0997205
583.5000	0.101239
583.0000	0.102277
582.5000	0.103867
582.0000	0.104942
581.5000	0.106597
581.0000	0.107719
580.5000	0.109478
580.0000	0.110648
579.5000	0.112434
579.0000	0.113671
578.5000	0.115535
578.0000	0.116809
577.5000	0.118784
577.0000	0.120119
576.5000	0.122146
576.0000	0.12354
575.5000	0.125691
575.0000	0.12715
574.5000	0.129371
574.0000	0.130888
573.5000	0.133182
573.0000	0.134756
572.5000	0.137179
572.0000	0.138843
571.5000	0.141368
571.0000	0.143083
570.5000	0.145724
570.0000	0.147525
569.5000	0.150284
569.0000	0.15214
568.5000	0.155018
568.0000	0.156981
567.5000	0.159953
567.0000	0.161992
566.5000	0.165074
566.0000	0.16718
565.5000	0.170377
565.0000	0.17256
564.5000	0.175889
564.0000	0.178161
563.5000	0.181601
563.0000	0.183938
562.5000	0.18748
562.0000	0.189894
561.5000	0.19358
561.0000	0.196068
560.5000	0.199869
560.0000	0.202435
559.5000	0.206361
559.0000	0.209021
558.5000	0.213075
558.0000	0.215821
557.5000	0.219998
557.0000	0.222807
556.5000	0.227109
556.0000	0.230016
555.5000	0.234404
555.0000	0.237373
554.5000	0.241878
554.0000	0.244942
553.5000	0.249568
553.0000	0.252668
552.5000	0.257369
552.0000	0.260498
551.5000	0.265246
551.0000	0.268433
550.5000	0.273264
550.0000	0.276478
549.5000	0.281355
549.0000	0.284608
548.5000	0.289492
548.0000	0.292782
547.5000	0.297683
547.0000	0.30094
546.5000	0.305812
546.0000	0.309081
545.5000	0.313984
545.0000	0.317216
544.5000	0.322047
544.0000	0.325246
543.5000	0.32999
543.0000	0.333116
542.5000	0.337761
542.0000	0.340829
541.5000	0.345301
541.0000	0.348253
540.5000	0.352615
540.0000	0.355472
539.5000	0.359597
539.0000	0.362265
538.5000	0.366176
538.0000	0.368691
537.5000	0.372325
537.0000	0.374658
536.5000	0.378013
536.0000	0.380149
535.5000	0.383212
535.0000	0.385131
534.5000	0.387842
534.0000	0.389506
533.5000	0.39185
533.0000	0.393245
532.5000	0.395192
532.0000	0.39633
531.5000	0.397833
531.0000	0.398696
530.5000	0.399783
530.0000	0.400343
529.5000	0.400942
529.0000	0.401176
528.5000	0.401314
528.0000	0.401253
527.5000	0.400928
527.0000	0.400561
526.5000	0.399831
526.0000	0.399175
525.5000	0.397978
525.0000	0.397043
524.5000	0.395427
524.0000	0.394216
523.5000	0.392212
523.0000	0.390747
522.5000	0.388398
522.0000	0.386718
521.5000	0.384034
521.0000	0.382156
520.5000	0.379183
520.0000	0.37625
519.5000	0.372995
519.0000	0.370767
518.5000	0.367307
518.0000	0.364935
517.5000	0.36128
517.0000	0.358798
516.5000	0.355027
516.0000	0.352485
515.5000	0.348627
515.0000	0.346022
514.5000	0.342077
514.0000	0.339421
513.5000	0.335407
513.0000	0.332744
512.5000	0.328731
512.0000	0.326021
511.5000	0.321984
511.0000	0.319306
510.5000	0.315267
510.0000	0.312559
509.5000	0.30854
509.0000	0.305851
508.5000	0.301823
508.0000	0.299176
507.5000	0.295203
507.0000	0.292577
506.5000	0.288662
506.0000	0.286056
505.5000	0.282221
505.0000	0.279688
504.5000	0.275875
504.0000	0.273375
503.5000	0.269694
503.0000	0.267243
502.5000	0.263615
502.0000	0.261223
501.5000	0.257673
501.0000	0.255337
500.5000	0.251861
500.0000	0.24957
499.5000	0.246186
499.0000	0.243937
498.5000	0.240623
498.0000	0.238454
497.5000	0.235195
497.0000	0.233034
496.5000	0.229864
496.0000	0.227757
495.5000	0.224631
495.0000	0.222564
494.5000	0.219506
494.0000	0.217494
493.5000	0.214477
493.0000	0.212499
492.5000	0.209564
492.0000	0.207628
491.5000	0.204746
491.0000	0.20286
490.5000	0.20002
490.0000	0.198148
489.5000	0.195373
489.0000	0.193543
488.5000	0.190849
488.0000	0.189067
487.5000	0.186423
487.0000	0.184702
486.5000	0.182142
486.0000	0.180448
485.5000	0.177938
485.0000	0.176289
484.5000	0.173855
484.0000	0.172295
483.5000	0.169947
483.0000	0.168406
482.5000	0.166153
482.0000	0.164659
481.5000	0.162478
481.0000	0.161042
480.5000	0.158936
480.0000	0.157576
479.5000	0.155583
479.0000	0.154281
478.5000	0.152399
478.0000	0.151173
477.5000	0.149364
477.0000	0.148216
476.5000	0.14655
476.0000	0.14548
475.5000	0.143926
475.0000	0.142923
474.5000	0.141516
474.0000	0.140625
473.5000	0.139311
473.0000	0.138497
472.5000	0.13735
472.0000	0.136626
471.5000	0.135635
471.0000	0.13502
470.5000	0.134172
470.0000	0.133657
469.5000	0.132989
469.0000	0.132594
468.5000	0.132117
468.0000	0.13186
467.5000	0.131562
467.0000	0.131458
466.5000	0.131381
466.0000	0.131437
465.5000	0.131611
465.0000	0.131826
464.5000	0.132291
464.0000	0.13268
463.5000	0.133405
463.0000	0.133992
462.5000	0.135027
462.0000	0.135829
461.5000	0.137161
461.0000	0.13815
460.5000	0.139792
460.0000	0.141009
459.5000	0.142979
459.0000	0.14438
458.5000	0.146598
458.0000	0.148157
457.5000	0.150621
457.0000	0.152316
456.5000	0.154909
456.0000	0.156664
455.5000	0.159327
455.0000	0.161119
454.5000	0.163751
454.0000	0.165446
453.5000	0.167865
453.0000	0.16937
452.5000	0.171469
452.0000	0.172772
451.5000	0.174534
451.0000	0.175523
450.5000	0.176816
450.0000	0.177522
449.5000	0.178326
449.0000	0.178686
448.5000	0.178935
448.0000	0.178961
447.5000	0.178752
447.0000	0.178461
446.5000	0.177864
446.0000	0.177358
445.5000	0.176383
445.0000	0.17564
444.5000	0.174403
444.0000	0.173511
443.5000	0.172088
443.0000	0.171111
442.5000	0.169614
442.0000	0.168601
441.5000	0.167067
441.0000	0.166037
440.5000	0.164547
440.0000	0.163553
439.5000	0.16218
439.0000	0.161303
438.5000	0.160078
438.0000	0.159326
437.5000	0.158324
437.0000	0.157741
436.5000	0.156989
436.0000	0.156597
435.5000	0.156198
435.0000	0.156033
434.5000	0.155964
434.0000	0.156053
433.5000	0.156356
433.0000	0.156647
432.5000	0.157272
432.0000	0.157822
431.5000	0.158781
431.0000	0.15951
430.5000	0.160737
430.0000	0.161631
429.5000	0.163087
429.0000	0.164108
428.5000	0.165738
428.0000	0.166821
427.5000	0.168483
427.0000	0.169593
426.5000	0.171224
426.0000	0.172272
425.5000	0.17379
425.0000	0.174718
424.5000	0.176039
424.0000	0.176864
423.5000	0.17796
423.0000	0.178578
422.5000	0.179378
422.0000	0.179799
421.5000	0.180312
421.0000	0.180537
420.5000	0.180747
420.0000	0.180876
419.5000	0.180843
419.0000	0.180739
418.5000	0.180508
418.0000	0.180286
417.5000	0.17986
417.0000	0.179525
416.5000	0.179029
416.0000	0.178678
415.5000	0.178129
415.0000	0.177763
414.5000	0.177196
414.0000	0.176865
413.5000	0.17644
413.0000	0.176151
412.5000	0.175837
412.0000	0.175654
411.5000	0.175446
411.0000	0.175407
410.5000	0.175403
410.0000	0.17548
409.5000	0.17569
409.0000	0.175925
408.5000	0.176345
408.0000	0.176719
407.5000	0.1774
407.0000	0.177906
406.5000	0.178808
406.0000	0.179478
405.5000	0.180592
405.0000	0.181373
404.5000	0.182569
404.0000	0.183461
403.5000	0.18486
403.0000	0.185819
402.5000	0.187286
402.0000	0.188342
401.5000	0.189876
401.0000	0.190884
400.5000	0.192467
400.0000	0.193519
399.5000	0.195077
399.0000	0.196119
398.5000	0.197674
398.0000	0.198753
397.5000	0.200298
397.0000	0.201342
396.5000	0.202857
396.0000	0.20389
395.5000	0.20542
395.0000	0.206441
394.5000	0.208002
394.0000	0.209043
393.5000	0.210694
393.0000	0.211761
392.5000	0.213447
392.0000	0.214615
391.5000	0.216359
391.0000	0.217599
390.5000	0.219498
390.0000	0.22086
389.5000	0.222917
389.0000	0.224346
388.5000	0.226611
388.0000	0.22814
387.5000	0.230568
387.0000	0.232202
386.5000	0.234797
386.0000	0.236577
385.5000	0.239381
385.0000	0.241289
384.5000	0.244238
384.0000	0.246256
383.5000	0.24935
383.0000	0.251481
382.5000	0.254764
382.0000	0.256985
381.5000	0.260429
381.0000	0.262751
380.5000	0.266312
380.0000	0.268688
379.5000	0.272349
379.0000	0.274802
378.5000	0.27866
378.0000	0.281222
377.5000	0.285129
377.0000	0.28774
376.5000	0.291727
376.0000	0.294397
375.5000	0.298437
375.0000	0.301198
374.5000	0.305348
374.0000	0.308223
373.5000	0.312551
373.0000	0.315448
372.5000	0.319901
372.0000	0.322876
371.5000	0.327358
371.0000	0.33037
370.5000	0.335048
370.0000	0.338803
369.5000	0.343712
369.0000	0.346988
368.5000	0.351958
368.0000	0.3553
367.5000	0.360388
367.0000	0.363805
366.5000	0.369049
366.0000	0.372609
365.5000	0.377928
365.0000	0.381561
364.5000	0.387073
364.0000	0.39084
363.5000	0.396498
363.0000	0.400271
362.5000	0.405942
362.0000	0.40978
361.5000	0.415484
361.0000	0.419373
360.5000	0.425173
360.0000	0.429115
359.5000	0.434929
359.0000	0.43878
358.5000	0.444574
358.0000	0.448477
357.5000	0.454301
357.0000	0.458086
356.5000	0.46376
356.0000	0.467539
355.5000	0.47322
355.0000	0.476993
354.5000	0.482577
354.0000	0.486222
353.5000	0.491739
353.0000	0.495322
352.5000	0.500783
352.0000	0.504311
351.5000	0.509483
351.0000	0.512917
350.5000	0.517912
350.0000	0.521232
349.5000	0.526044
349.0000	0.52919
348.5000	0.53375
348.0000	0.53683
347.5000	0.541253
347.0000	0.544079
346.5000	0.548248
346.0000	0.550869
345.5000	0.554684
345.0000	0.557257
344.5000	0.56072
344.0000	0.562968
343.5000	0.566242
343.0000	0.568271
342.5000	0.571243
342.0000	0.573192
341.5000	0.575822
341.0000	0.577467
340.5000	0.579798
340.0000	0.583049
339.5000	0.585087
339.0000	0.586365
338.5000	0.588089
338.0000	0.589163
337.5000	0.590541
337.0000	0.591444
336.5000	0.592687
336.0000	0.593456
335.5000	0.594425
335.0000	0.59497
334.5000	0.595742
334.0000	0.596087
333.5000	0.596598
333.0000	0.596849
332.5000	0.59718
332.0000	0.597305
331.5000	0.597473
331.0000	0.597497
330.5000	0.597601
330.0000	0.597647
329.5000	0.597576
329.0000	0.597573
328.5000	0.597609
328.0000	0.597587
327.5000	0.597669
327.0000	0.597766
326.5000	0.597925
326.0000	0.598089
325.5000	0.598458
325.0000	0.598708
324.5000	0.59929
324.0000	0.599689
323.5000	0.600523
323.0000	0.601157
322.5000	0.602271
322.0000	0.603193
321.5000	0.604631
321.0000	0.605714
320.5000	0.607639
320.0000	0.609158
319.5000	0.611739
319.0000	0.613593
318.5000	0.616735
318.0000	0.619006
317.5000	0.622746
317.0000	0.625537
316.5000	0.630019
316.0000	0.633272
315.5000	0.638631
315.0000	0.642484
314.5000	0.648789
314.0000	0.653249
313.5000	0.660356
313.0000	0.665487
312.5000	0.673713
312.0000	0.679505
311.5000	0.68879
311.0000	0.695412
310.5000	0.705895
310.0000	0.71334
309.5000	0.725068
309.0000	0.733386
308.5000	0.746464
308.0000	0.755672
307.5000	0.770186
307.0000	0.780429
306.5000	0.796514
306.0000	0.807797
305.5000	0.82545
305.0000	0.83785
304.5000	0.8572
304.0000	0.870741
303.5000	0.891815
303.0000	0.906556
302.5000	0.929443
302.0000	0.945363
301.5000	0.97014
301.0000	0.987353
300.5000	1.01402
300.0000	1.03254

##### Extended Information
[コメント情報]
試料名
コメント
測定者
所属
会社	関西大学　化学生命工学部

[データ情報]
作成日時	2014/02/28 16:57

データタイプ	等間隔データ
横軸	Wavelength [nm]
縦軸	Abs
スタート	700 nm
エンド	300 nm
データ間隔	0.5 nm
データ数	801     

[測定情報]
装置名	V-670
機種名	V-670
シリアル番号	B118261154

付属品名	USE-753
付属品シリアルNo.	B118261154
  セル長	0.1 mm

測定日時	2014/02/28 16:57

測光モード	Abs
測定範囲	700 - 300 nm
データ取込間隔	0.5 nm
UV/Vis バンド幅	1.0 nm
NIR バンド幅	8.0 nm
レスポンス	Medium
走査速度	400 nm/min
光源切換	340 nm
回折格子切換	850 nm
光源	D2/WI
フィルタ切換	ステップ
補正	ベースライン

