TITLE	
DATA TYPE	ULTRAVIOLET SPECTRUM
ORIGIN	JASCO
OWNER	
DATE	14/05/29
TIME	21:55:44
SPECTROMETER/DATA SYSTEM	
LOCALE	1041
RESOLUTION	
DELTAX	-0.5
XUNITS	NANOMETERS
YUNITS	ABSORBANCE
FIRSTX	  700.0000
LASTX	  300.0000
NPOINTS	     801
FIRSTY	     0.01058
MAXY	     1.64400
MINY	     0.00908
XYDATA
700.0000	0.0105812
699.5000	0.010565
699.0000	0.0105604
698.5000	0.010503
698.0000	0.0104804
697.5000	0.0104408
697.0000	0.0104164
696.5000	0.0103874
696.0000	0.0103637
695.5000	0.0103369
695.0000	0.010312
694.5000	0.0102515
694.0000	0.0102165
693.5000	0.0101863
693.0000	0.0101518
692.5000	0.0100932
692.0000	0.0100865
691.5000	0.0100534
691.0000	0.0100124
690.5000	0.0099877
690.0000	0.00994742
689.5000	0.00990926
689.0000	0.00987926
688.5000	0.00987646
688.0000	0.00986234
687.5000	0.00984204
687.0000	0.00982174
686.5000	0.0097849
686.0000	0.00976995
685.5000	0.00973927
685.0000	0.00972597
684.5000	0.00969319
684.0000	0.00965975
683.5000	0.00965469
683.0000	0.00962668
682.5000	0.00957304
682.0000	0.0095481
681.5000	0.00954109
681.0000	0.00949868
680.5000	0.00946471
680.0000	0.0094436
679.5000	0.00941746
679.0000	0.00939116
678.5000	0.00937067
678.0000	0.00933719
677.5000	0.00932222
677.0000	0.00929176
676.5000	0.00929418
676.0000	0.00927753
675.5000	0.00925402
675.0000	0.00921614
674.5000	0.00921028
674.0000	0.00918641
673.5000	0.0091805
673.0000	0.00918441
672.5000	0.00917587
672.0000	0.00917288
671.5000	0.00915615
671.0000	0.0091499
670.5000	0.00915291
670.0000	0.00913556
669.5000	0.00914235
669.0000	0.00913466
668.5000	0.00911662
668.0000	0.00910694
667.5000	0.00910272
667.0000	0.00909706
666.5000	0.00907993
666.0000	0.00908274
665.5000	0.00908088
665.0000	0.00908648
664.5000	0.00910649
664.0000	0.00910669
663.5000	0.00912939
663.0000	0.00912073
662.5000	0.00911206
662.0000	0.00912229
661.5000	0.00917582
661.0000	0.00917447
660.5000	0.00918484
660.0000	0.00918284
659.5000	0.00919471
659.0000	0.00920731
658.5000	0.00924207
658.0000	0.00924729
657.5000	0.00926433
657.0000	0.00927041
656.5000	0.00933942
656.0000	0.00938311
655.5000	0.00938843
655.0000	0.00938719
654.5000	0.00941347
654.0000	0.00944373
653.5000	0.00948865
653.0000	0.00951724
652.5000	0.0095332
652.0000	0.00954383
651.5000	0.00958485
651.0000	0.00962998
650.5000	0.00967601
650.0000	0.0096832
649.5000	0.00972311
649.0000	0.00978401
648.5000	0.00983359
648.0000	0.00986756
647.5000	0.0099121
647.0000	0.00993184
646.5000	0.00999929
646.0000	0.0100473
645.5000	0.0100993
645.0000	0.0101367
644.5000	0.0102027
644.0000	0.0102387
643.5000	0.0103028
643.0000	0.0103606
642.5000	0.0104338
642.0000	0.0104946
641.5000	0.0105731
641.0000	0.0106353
640.5000	0.0107523
640.0000	0.0108085
639.5000	0.0109006
639.0000	0.0109546
638.5000	0.011052
638.0000	0.0111125
637.5000	0.0112167
637.0000	0.0112838
636.5000	0.0113867
636.0000	0.0114422
635.5000	0.0115396
635.0000	0.0116084
634.5000	0.0116856
634.0000	0.0117481
633.5000	0.0118778
633.0000	0.0119605
632.5000	0.0120673
632.0000	0.012149
631.5000	0.0122568
631.0000	0.0123259
630.5000	0.0124489
630.0000	0.0125347
629.5000	0.0126941
629.0000	0.0127889
628.5000	0.0129525
628.0000	0.0130486
627.5000	0.0131967
627.0000	0.0132865
626.5000	0.0134303
626.0000	0.0135456
625.5000	0.0137132
625.0000	0.0138022
624.5000	0.0139635
624.0000	0.0140747
623.5000	0.014249
623.0000	0.0143645
622.5000	0.0145489
622.0000	0.0146481
621.5000	0.0148261
621.0000	0.014957
620.5000	0.0151478
620.0000	0.0152724
619.5000	0.015472
619.0000	0.0156003
618.5000	0.0158163
618.0000	0.0159712
617.5000	0.0161709
617.0000	0.016314
616.5000	0.016529
616.0000	0.016663
615.5000	0.0168925
615.0000	0.0170498
614.5000	0.017275
614.0000	0.0174353
613.5000	0.0176947
613.0000	0.0178674
612.5000	0.0181082
612.0000	0.0182847
611.5000	0.0185393
611.0000	0.0187224
610.5000	0.0189865
610.0000	0.0191679
609.5000	0.0194723
609.0000	0.0196608
608.5000	0.0199629
608.0000	0.0201648
607.5000	0.0204713
607.0000	0.0206729
606.5000	0.0210039
606.0000	0.0212348
605.5000	0.0215823
605.0000	0.0218176
604.5000	0.0221786
604.0000	0.0224176
603.5000	0.0227799
603.0000	0.0230194
602.5000	0.0233947
602.0000	0.0236541
601.5000	0.0240468
601.0000	0.0243119
600.5000	0.0247336
600.0000	0.025011
599.5000	0.0254232
599.0000	0.0256944
598.5000	0.0261554
598.0000	0.0264631
597.5000	0.0269018
597.0000	0.0271935
596.5000	0.0276793
596.0000	0.028002
595.5000	0.0284821
595.0000	0.0288018
594.5000	0.0292909
594.0000	0.0296462
593.5000	0.0301595
593.0000	0.0305098
592.5000	0.0310533
592.0000	0.0314081
591.5000	0.0319543
591.0000	0.0323474
590.5000	0.0329514
590.0000	0.0333284
589.5000	0.0339373
589.0000	0.0343587
588.5000	0.0349961
588.0000	0.0354109
587.5000	0.0360404
587.0000	0.0364919
586.5000	0.0371568
586.0000	0.0376086
585.5000	0.0383327
585.0000	0.0388275
584.5000	0.0395606
584.0000	0.0400531
583.5000	0.0408073
583.0000	0.0412923
582.5000	0.0420615
582.0000	0.0426024
581.5000	0.043439
581.0000	0.0439994
580.5000	0.0448299
580.0000	0.0454277
579.5000	0.046306
579.0000	0.0469017
578.5000	0.0477965
578.0000	0.048409
577.5000	0.0493489
577.0000	0.0499929
576.5000	0.0509938
576.0000	0.0516644
575.5000	0.0526832
575.0000	0.0533728
574.5000	0.0544211
574.0000	0.055119
573.5000	0.0561808
573.0000	0.056914
572.5000	0.0580138
572.0000	0.0587824
571.5000	0.0599591
571.0000	0.0607161
570.5000	0.0618901
570.0000	0.062691
569.5000	0.0639229
569.0000	0.0647446
568.5000	0.066
568.0000	0.0668408
567.5000	0.0681437
567.0000	0.0690185
566.5000	0.0703534
566.0000	0.0712415
565.5000	0.0726014
565.0000	0.0735109
564.5000	0.0749292
564.0000	0.0758763
563.5000	0.0772609
563.0000	0.0782218
562.5000	0.0796655
562.0000	0.0806416
561.5000	0.0821389
561.0000	0.0831145
560.5000	0.0846184
560.0000	0.0856331
559.5000	0.0871683
559.0000	0.0881943
558.5000	0.0897361
558.0000	0.0907775
557.5000	0.0923381
557.0000	0.0933983
556.5000	0.0949925
556.0000	0.0960377
555.5000	0.0976413
555.0000	0.098692
554.5000	0.100268
554.0000	0.101336
553.5000	0.102905
553.0000	0.103958
552.5000	0.105521
552.0000	0.106539
551.5000	0.108089
551.0000	0.109116
550.5000	0.110645
550.0000	0.111633
549.5000	0.113131
549.0000	0.114108
548.5000	0.115579
548.0000	0.116543
547.5000	0.117953
547.0000	0.118872
546.5000	0.120217
546.0000	0.121103
545.5000	0.122384
545.0000	0.123242
544.5000	0.124451
544.0000	0.125238
543.5000	0.126382
543.0000	0.127108
542.5000	0.128156
542.0000	0.128845
541.5000	0.129791
541.0000	0.130396
540.5000	0.131263
540.0000	0.131812
539.5000	0.132583
539.0000	0.133069
538.5000	0.133721
538.0000	0.134132
537.5000	0.134661
537.0000	0.134998
536.5000	0.135438
536.0000	0.135717
535.5000	0.136032
535.0000	0.136228
534.5000	0.136461
534.0000	0.136595
533.5000	0.136711
533.0000	0.136756
532.5000	0.136767
532.0000	0.136753
531.5000	0.136652
531.0000	0.136572
530.5000	0.136414
530.0000	0.136273
529.5000	0.136001
529.0000	0.135794
528.5000	0.135443
528.0000	0.135186
527.5000	0.134771
527.0000	0.134464
526.5000	0.133969
526.0000	0.133634
525.5000	0.13309
525.0000	0.132737
524.5000	0.132142
524.0000	0.131709
523.5000	0.131063
523.0000	0.130623
522.5000	0.12995
522.0000	0.129476
521.5000	0.128753
521.0000	0.128246
520.5000	0.12749
520.0000	0.12713
519.5000	0.126359
519.0000	0.125859
518.5000	0.125051
518.0000	0.124516
517.5000	0.123727
517.0000	0.1232
516.5000	0.122405
516.0000	0.121851
515.5000	0.121057
515.0000	0.120515
514.5000	0.119717
514.0000	0.119188
513.5000	0.118421
513.0000	0.117881
512.5000	0.11707
512.0000	0.11655
511.5000	0.115764
511.0000	0.11527
510.5000	0.114493
510.0000	0.113998
509.5000	0.11328
509.0000	0.112779
508.5000	0.112068
508.0000	0.111592
507.5000	0.110862
507.0000	0.110381
506.5000	0.109681
506.0000	0.109213
505.5000	0.108552
505.0000	0.108094
504.5000	0.107389
504.0000	0.106937
503.5000	0.106263
503.0000	0.105809
502.5000	0.105165
502.0000	0.104723
501.5000	0.104088
501.0000	0.103653
500.5000	0.103033
500.0000	0.102612
499.5000	0.102
499.0000	0.101586
498.5000	0.100974
498.0000	0.100576
497.5000	0.0999606
497.0000	0.0995578
496.5000	0.0989692
496.0000	0.0985634
495.5000	0.0979535
495.0000	0.0975467
494.5000	0.0969869
494.0000	0.0965922
493.5000	0.0960006
493.0000	0.0955911
492.5000	0.0950248
492.0000	0.0946421
491.5000	0.0940784
491.0000	0.0936957
490.5000	0.09313
490.0000	0.0927479
489.5000	0.0922213
489.0000	0.0918574
488.5000	0.0913195
488.0000	0.0909486
487.5000	0.0903975
487.0000	0.0900495
486.5000	0.0895265
486.0000	0.0891481
485.5000	0.0886298
485.0000	0.0882715
484.5000	0.0877881
484.0000	0.0874256
483.5000	0.0869346
483.0000	0.0866058
482.5000	0.0861353
482.0000	0.0858068
481.5000	0.0853574
481.0000	0.0850777
480.5000	0.0846359
480.0000	0.0843772
479.5000	0.0839903
479.0000	0.0837131
478.5000	0.0833376
478.0000	0.0830798
477.5000	0.0827295
477.0000	0.0825125
476.5000	0.082167
476.0000	0.0819548
475.5000	0.0816649
475.0000	0.0814912
474.5000	0.0812162
474.0000	0.0810631
473.5000	0.0808513
473.0000	0.0807109
472.5000	0.0805452
472.0000	0.0804588
471.5000	0.0803366
471.0000	0.0803049
470.5000	0.0802564
470.0000	0.0802705
469.5000	0.0803079
469.0000	0.0803735
468.5000	0.0805001
468.0000	0.0806367
467.5000	0.0809089
467.0000	0.0811103
466.5000	0.0815577
466.0000	0.0819195
465.5000	0.0825233
465.0000	0.0830087
464.5000	0.0837968
464.0000	0.0843912
463.5000	0.08543
463.0000	0.086201
462.5000	0.0875016
462.0000	0.0884648
461.5000	0.0900535
461.0000	0.0912196
460.5000	0.0931077
460.0000	0.0944434
459.5000	0.0966159
459.0000	0.0981616
458.5000	0.100614
458.0000	0.102322
457.5000	0.104989
457.0000	0.106801
456.5000	0.109517
456.0000	0.111336
455.5000	0.113961
455.0000	0.115679
454.5000	0.118112
454.0000	0.119586
453.5000	0.121599
453.0000	0.122754
452.5000	0.124238
452.0000	0.124999
451.5000	0.125847
451.0000	0.126193
450.5000	0.126437
450.0000	0.126398
449.5000	0.126043
449.0000	0.125644
448.5000	0.124767
448.0000	0.12408
447.5000	0.122842
447.0000	0.121924
446.5000	0.120399
446.0000	0.11933
445.5000	0.117619
445.0000	0.116428
444.5000	0.114554
444.0000	0.113263
443.5000	0.111305
443.0000	0.109978
442.5000	0.108014
442.0000	0.106711
441.5000	0.104745
441.0000	0.10344
440.5000	0.101557
440.0000	0.10032
439.5000	0.0985723
439.0000	0.0974675
438.5000	0.0959288
438.0000	0.0949628
437.5000	0.0936649
437.0000	0.0929088
436.5000	0.0919085
436.0000	0.091342
435.5000	0.0906612
435.0000	0.0903215
434.5000	0.0900544
434.0000	0.0899186
433.5000	0.0899787
433.0000	0.090078
432.5000	0.0904615
432.0000	0.0908207
431.5000	0.0914944
431.0000	0.0920225
430.5000	0.0929364
430.0000	0.0936115
429.5000	0.0946331
429.0000	0.0953381
428.5000	0.0964244
428.0000	0.0971039
427.5000	0.0981385
427.0000	0.0987439
426.5000	0.0996016
426.0000	0.100037
425.5000	0.100601
425.0000	0.100871
424.5000	0.101148
424.0000	0.101174
423.5000	0.101049
423.0000	0.100889
422.5000	0.100411
422.0000	0.0999803
421.5000	0.0991644
421.0000	0.0985103
420.5000	0.0974138
420.0000	0.0965176
419.5000	0.0951147
419.0000	0.0940999
418.5000	0.0925597
418.0000	0.0914513
417.5000	0.0897595
417.0000	0.0886025
416.5000	0.086868
416.0000	0.0857078
415.5000	0.0839558
415.0000	0.0828413
414.5000	0.0811213
414.0000	0.0800002
413.5000	0.0784055
413.0000	0.07742
412.5000	0.0759565
412.0000	0.0750062
411.5000	0.0736698
411.0000	0.072818
410.5000	0.0716712
410.0000	0.0710002
409.5000	0.070078
409.0000	0.069549
408.5000	0.068828
408.0000	0.0684018
407.5000	0.0678575
407.0000	0.0675311
406.5000	0.0671578
406.0000	0.0669791
405.5000	0.0667817
405.0000	0.0666921
404.5000	0.0665687
404.0000	0.0665319
403.5000	0.0664231
403.0000	0.0663563
402.5000	0.0662669
402.0000	0.0661986
401.5000	0.0660659
401.0000	0.0659363
400.5000	0.0657715
400.0000	0.0656015
399.5000	0.0652853
399.0000	0.0650487
398.5000	0.0646863
398.0000	0.0644043
397.5000	0.0639018
397.0000	0.0635495
396.5000	0.0629687
396.0000	0.0625977
395.5000	0.0619351
395.0000	0.0615152
394.5000	0.0608657
394.0000	0.0603552
393.5000	0.0596621
393.0000	0.0591741
392.5000	0.0584676
392.0000	0.0580265
391.5000	0.0573713
391.0000	0.0569406
390.5000	0.0563755
390.0000	0.0560152
389.5000	0.055489
389.0000	0.0552262
388.5000	0.0548024
388.0000	0.0545692
387.5000	0.0543075
387.0000	0.0540908
386.5000	0.0538862
386.0000	0.0537906
385.5000	0.0537014
385.0000	0.0536529
384.5000	0.0536007
384.0000	0.0535909
383.5000	0.0535905
383.0000	0.053659
382.5000	0.0537617
382.0000	0.053844
381.5000	0.0539672
381.0000	0.0540762
380.5000	0.0542821
380.0000	0.0543758
379.5000	0.0545756
379.0000	0.0546944
378.5000	0.05492
378.0000	0.0550475
377.5000	0.055257
377.0000	0.0553984
376.5000	0.0555645
376.0000	0.0556929
375.5000	0.0559022
375.0000	0.0560563
374.5000	0.0562501
374.0000	0.0564064
373.5000	0.0566503
373.0000	0.0568088
372.5000	0.0570617
372.0000	0.0572201
371.5000	0.0575086
371.0000	0.0577441
370.5000	0.0580975
370.0000	0.05842
369.5000	0.0587504
369.0000	0.0590285
368.5000	0.05949
368.0000	0.05975
367.5000	0.0601154
367.0000	0.0604468
366.5000	0.0609285
366.0000	0.0612852
365.5000	0.0617769
365.0000	0.0621548
364.5000	0.0627352
364.0000	0.0631149
363.5000	0.0637453
363.0000	0.0642058
362.5000	0.064744
362.0000	0.0651637
361.5000	0.0657977
361.0000	0.0661932
360.5000	0.0668205
360.0000	0.0672424
359.5000	0.0678935
359.0000	0.068301
358.5000	0.0688965
358.0000	0.0692939
357.5000	0.0699676
357.0000	0.0703154
356.5000	0.0708329
356.0000	0.0712099
355.5000	0.0717453
355.0000	0.0720914
354.5000	0.0726385
354.0000	0.0729488
353.5000	0.0735546
353.0000	0.0738247
352.5000	0.0743617
352.0000	0.0746815
351.5000	0.075184
351.0000	0.0755262
350.5000	0.0760831
350.0000	0.0764706
349.5000	0.0770865
349.0000	0.0775526
348.5000	0.0782685
348.0000	0.0787219
347.5000	0.0793541
347.0000	0.0797965
346.5000	0.0805234
346.0000	0.0810771
345.5000	0.0818678
345.0000	0.0824382
344.5000	0.0832969
344.0000	0.0838684
343.5000	0.0847959
343.0000	0.0853642
342.5000	0.0862497
342.0000	0.0869462
341.5000	0.0880338
341.0000	0.0887368
340.5000	0.0899199
340.0000	0.0915288
339.5000	0.0929265
339.0000	0.0938743
338.5000	0.0954029
338.0000	0.0964576
337.5000	0.098118
337.0000	0.0994432
336.5000	0.10133
336.0000	0.102727
335.5000	0.104948
335.0000	0.106624
334.5000	0.109206
334.0000	0.111
333.5000	0.11389
333.0000	0.115963
332.5000	0.119279
332.0000	0.121623
331.5000	0.125395
331.0000	0.128084
330.5000	0.132247
330.0000	0.135282
329.5000	0.14
329.0000	0.143449
328.5000	0.148827
328.0000	0.152656
327.5000	0.158769
327.0000	0.163074
326.5000	0.169832
326.0000	0.174573
325.5000	0.182224
325.0000	0.187653
324.5000	0.196216
324.0000	0.202259
323.5000	0.211894
323.0000	0.218692
322.5000	0.229436
322.0000	0.237085
321.5000	0.24908
321.0000	0.257511
320.5000	0.270918
320.0000	0.280359
319.5000	0.295344
319.0000	0.305787
318.5000	0.32245
318.0000	0.334164
317.5000	0.35265
317.0000	0.36565
316.5000	0.386073
316.0000	0.40036
315.5000	0.422848
315.0000	0.438682
314.5000	0.463564
314.0000	0.481021
313.5000	0.508405
313.0000	0.527513
312.5000	0.557579
312.0000	0.578542
311.5000	0.611321
311.0000	0.634189
310.5000	0.669922
310.0000	0.694828
309.5000	0.733947
309.0000	0.760961
308.5000	0.803195
308.0000	0.832609
307.5000	0.878316
307.0000	0.910079
306.5000	0.959681
306.0000	0.994071
305.5000	1.04762
305.0000	1.08475
304.5000	1.14221
304.0000	1.18195
303.5000	1.24373
303.0000	1.28636
302.5000	1.35278
302.0000	1.39844
301.5000	1.46908
301.0000	1.5177
300.5000	1.59279
300.0000	1.644

##### Extended Information
[コメント情報]
試料名
コメント
測定者
所属
会社	関西大学　化学生命工学部

[データ情報]
作成日時	2014/05/29 21:55

データタイプ	等間隔データ
横軸	Wavelength [nm]
縦軸	Abs
スタート	700 nm
エンド	300 nm
データ間隔	0.5 nm
データ数	801     

[測定情報]
装置名	V-670
機種名	V-670
シリアル番号	B118261154

付属品名	USE-753
付属品シリアルNo.	B118261154
  セル長	0.1 mm

測定日時	2014/05/29 21:55

測光モード	Abs
測定範囲	700 - 300 nm
データ取込間隔	0.5 nm
UV/Vis バンド幅	1.0 nm
NIR バンド幅	8.0 nm
レスポンス	Medium
走査速度	400 nm/min
光源切換	340 nm
回折格子切換	850 nm
光源	D2/WI
フィルタ切換	ステップ
補正	ベースライン

