TITLE	
DATA TYPE	ULTRAVIOLET SPECTRUM
ORIGIN	JASCO
OWNER	
DATE	14/06/04
TIME	18:47:42
SPECTROMETER/DATA SYSTEM	
LOCALE	1041
RESOLUTION	
DELTAX	-0.5
XUNITS	NANOMETERS
YUNITS	ABSORBANCE
FIRSTX	  700.0000
LASTX	  300.0000
NPOINTS	     801
FIRSTY	     0.00385
MAXY	     0.91448
MINY	     0.00385
XYDATA
700.0000	0.00385347
699.5000	0.00386738
699.0000	0.00387442
698.5000	0.00386728
698.0000	0.00386932
697.5000	0.00386051
697.0000	0.0038742
696.5000	0.00387072
696.0000	0.00386808
695.5000	0.00386406
695.0000	0.00387952
694.5000	0.00388425
694.0000	0.00387147
693.5000	0.00387364
693.0000	0.00388132
692.5000	0.00387401
692.0000	0.00387372
691.5000	0.00386752
691.0000	0.00388226
690.5000	0.00387455
690.0000	0.00387525
689.5000	0.00388049
689.0000	0.00389104
688.5000	0.00387762
688.0000	0.00387215
687.5000	0.00389255
687.0000	0.00389314
686.5000	0.00388458
686.0000	0.00390141
685.5000	0.003901
685.0000	0.00390165
684.5000	0.0039101
684.0000	0.00393508
683.5000	0.00393828
683.0000	0.00395206
682.5000	0.00395466
682.0000	0.00395029
681.5000	0.00393218
681.0000	0.00391567
680.5000	0.00391632
680.0000	0.00393668
679.5000	0.00393665
679.0000	0.00393158
678.5000	0.00395549
678.0000	0.00394983
677.5000	0.00395772
677.0000	0.0039641
676.5000	0.00396132
676.0000	0.00395612
675.5000	0.00398302
675.0000	0.0040074
674.5000	0.00403659
674.0000	0.00404196
673.5000	0.00402622
673.0000	0.00404354
672.5000	0.00403577
672.0000	0.00403279
671.5000	0.00402138
671.0000	0.00402402
670.5000	0.0040573
670.0000	0.00406033
669.5000	0.00406928
669.0000	0.00408039
668.5000	0.0040882
668.0000	0.00408875
667.5000	0.0041145
667.0000	0.00412539
666.5000	0.00415878
666.0000	0.00418635
665.5000	0.0041938
665.0000	0.00421038
664.5000	0.00421839
664.0000	0.00420419
663.5000	0.00422288
663.0000	0.00423737
662.5000	0.00423685
662.0000	0.00425238
661.5000	0.00427456
661.0000	0.00428131
660.5000	0.00429059
660.0000	0.00429725
659.5000	0.0042993
659.0000	0.00430983
658.5000	0.0043334
658.0000	0.00434429
657.5000	0.00435431
657.0000	0.00436173
656.5000	0.00438159
656.0000	0.00440638
655.5000	0.00441463
655.0000	0.00442292
654.5000	0.00442613
654.0000	0.00445086
653.5000	0.00445791
653.0000	0.00448935
652.5000	0.0045082
652.0000	0.00453365
651.5000	0.00453466
651.0000	0.00455623
650.5000	0.00458118
650.0000	0.00459335
649.5000	0.004611
649.0000	0.00462579
648.5000	0.00466056
648.0000	0.00468999
647.5000	0.00469743
647.0000	0.00472605
646.5000	0.00473086
646.0000	0.00474713
645.5000	0.00478252
645.0000	0.00481035
644.5000	0.00483494
644.0000	0.00483313
643.5000	0.00485264
643.0000	0.00487001
642.5000	0.0048887
642.0000	0.00489001
641.5000	0.0049073
641.0000	0.00493126
640.5000	0.00495292
640.0000	0.004966
639.5000	0.00496841
639.0000	0.00498368
638.5000	0.00502462
638.0000	0.00502438
637.5000	0.00505807
637.0000	0.00508382
636.5000	0.00510284
636.0000	0.00511472
635.5000	0.0051733
635.0000	0.00517395
634.5000	0.00519789
634.0000	0.00520521
633.5000	0.00524931
633.0000	0.00528712
632.5000	0.00530436
632.0000	0.00531304
631.5000	0.00536405
631.0000	0.00538287
630.5000	0.00540049
630.0000	0.0054317
629.5000	0.00546106
629.0000	0.00548553
628.5000	0.00553534
628.0000	0.00556356
627.5000	0.00559804
627.0000	0.00562845
626.5000	0.00565113
626.0000	0.00567291
625.5000	0.00571714
625.0000	0.00574231
624.5000	0.0057732
624.0000	0.00580722
623.5000	0.00583589
623.0000	0.00587435
622.5000	0.00590931
622.0000	0.00592316
621.5000	0.0059465
621.0000	0.00597858
620.5000	0.00600751
620.0000	0.00604247
619.5000	0.00606773
619.0000	0.00608389
618.5000	0.00611046
618.0000	0.00614451
617.5000	0.00618245
617.0000	0.00622322
616.5000	0.00625405
616.0000	0.0062757
615.5000	0.00634404
615.0000	0.00637332
614.5000	0.0064362
614.0000	0.00646834
613.5000	0.00650738
613.0000	0.00656173
612.5000	0.00661518
612.0000	0.0066569
611.5000	0.00672083
611.0000	0.00675161
610.5000	0.00679706
610.0000	0.00685004
609.5000	0.00689728
609.0000	0.00692141
608.5000	0.00698926
608.0000	0.00701641
607.5000	0.00706094
607.0000	0.00710833
606.5000	0.00716633
606.0000	0.00722206
605.5000	0.00727881
605.0000	0.00732231
604.5000	0.00738106
604.0000	0.00742277
603.5000	0.00750045
603.0000	0.00754632
602.5000	0.00760495
602.0000	0.00763427
601.5000	0.00772747
601.0000	0.00777967
600.5000	0.00785013
600.0000	0.00864148
599.5000	0.0087132
599.0000	0.00876794
598.5000	0.00883249
598.0000	0.00888621
597.5000	0.0089874
597.0000	0.00904323
596.5000	0.0091474
596.0000	0.00919901
595.5000	0.00928726
595.0000	0.00934816
594.5000	0.00944354
594.0000	0.00951649
593.5000	0.00960375
593.0000	0.00964986
592.5000	0.00974117
592.0000	0.00980744
591.5000	0.00991116
591.0000	0.00996731
590.5000	0.0100525
590.0000	0.0101151
589.5000	0.0102127
589.0000	0.010293
588.5000	0.0104073
588.0000	0.0104721
587.5000	0.0105751
587.0000	0.010644
586.5000	0.0107542
586.0000	0.0108332
585.5000	0.0109441
585.0000	0.0110186
584.5000	0.011149
584.0000	0.0112232
583.5000	0.0113393
583.0000	0.0114158
582.5000	0.0115271
582.0000	0.0115999
581.5000	0.0117132
581.0000	0.0117965
580.5000	0.0119249
580.0000	0.0120189
579.5000	0.0121363
579.0000	0.0122079
578.5000	0.0123322
578.0000	0.0124153
577.5000	0.0125401
577.0000	0.0126501
576.5000	0.0127855
576.0000	0.0128822
575.5000	0.0130184
575.0000	0.0131252
574.5000	0.0132621
574.0000	0.0133604
573.5000	0.0135069
573.0000	0.0136041
572.5000	0.0137528
572.0000	0.013848
571.5000	0.0140105
571.0000	0.0141279
570.5000	0.0142717
570.0000	0.0143924
569.5000	0.0145797
569.0000	0.0146925
568.5000	0.0148555
568.0000	0.0149768
567.5000	0.0151584
567.0000	0.0152907
566.5000	0.0154694
566.0000	0.0155924
565.5000	0.0157566
565.0000	0.0158694
564.5000	0.016056
564.0000	0.0161645
563.5000	0.0163455
563.0000	0.0164511
562.5000	0.0166167
562.0000	0.0167176
561.5000	0.0168988
561.0000	0.0170018
560.5000	0.0171694
560.0000	0.0172884
559.5000	0.0174517
559.0000	0.0175846
558.5000	0.0177824
558.0000	0.017905
557.5000	0.0180845
557.0000	0.0182105
556.5000	0.0183877
556.0000	0.0185087
555.5000	0.0186965
555.0000	0.0188073
554.5000	0.0189988
554.0000	0.019093
553.5000	0.019286
553.0000	0.0194069
552.5000	0.0195757
552.0000	0.0196888
551.5000	0.0198441
551.0000	0.0199579
550.5000	0.0201156
550.0000	0.0202308
549.5000	0.0204041
549.0000	0.0205123
548.5000	0.0206719
548.0000	0.0207757
547.5000	0.0209225
547.0000	0.0210126
546.5000	0.021183
546.0000	0.0212546
545.5000	0.0213768
545.0000	0.0214633
544.5000	0.0215894
544.0000	0.0216583
543.5000	0.0217722
543.0000	0.021821
542.5000	0.0219377
542.0000	0.0219923
541.5000	0.0220774
541.0000	0.0221419
540.5000	0.0222269
540.0000	0.022272
539.5000	0.0223558
539.0000	0.0223935
538.5000	0.0224723
538.0000	0.0224932
537.5000	0.0225525
537.0000	0.0225829
536.5000	0.0226359
536.0000	0.0226466
535.5000	0.0226838
535.0000	0.0227106
534.5000	0.0227261
534.0000	0.0227478
533.5000	0.0227595
533.0000	0.0227663
532.5000	0.0227787
532.0000	0.0227987
531.5000	0.0227921
531.0000	0.0227866
530.5000	0.0227864
530.0000	0.0227592
529.5000	0.0227408
529.0000	0.0227253
528.5000	0.0226992
528.0000	0.0226743
527.5000	0.0226079
527.0000	0.0225708
526.5000	0.0225282
526.0000	0.0224988
525.5000	0.0224166
525.0000	0.0223561
524.5000	0.0222853
524.0000	0.0222347
523.5000	0.0221886
523.0000	0.0221088
522.5000	0.0220146
522.0000	0.0219559
521.5000	0.0218848
521.0000	0.0218134
520.5000	0.0217086
520.0000	0.0213777
519.5000	0.0212862
519.0000	0.0212196
518.5000	0.0211047
518.0000	0.0210373
517.5000	0.0209479
517.0000	0.0208708
516.5000	0.0207473
516.0000	0.0206911
515.5000	0.0205668
515.0000	0.0205022
514.5000	0.0203792
514.0000	0.0202962
513.5000	0.0202029
513.0000	0.0201395
512.5000	0.0200069
512.0000	0.0199387
511.5000	0.019818
511.0000	0.0197355
510.5000	0.0196088
510.0000	0.0195228
509.5000	0.019417
509.0000	0.0193358
508.5000	0.0192297
508.0000	0.019146
507.5000	0.0190484
507.0000	0.0189663
506.5000	0.0188572
506.0000	0.0187727
505.5000	0.0186759
505.0000	0.0186065
504.5000	0.018542
504.0000	0.0184963
503.5000	0.0184326
503.0000	0.0183522
502.5000	0.0182466
502.0000	0.0182115
501.5000	0.0181128
501.0000	0.0180497
500.5000	0.0179587
500.0000	0.0179065
499.5000	0.0178405
499.0000	0.0178009
498.5000	0.01774
498.0000	0.0176681
497.5000	0.0176036
497.0000	0.0175447
496.5000	0.0174787
496.0000	0.017458
495.5000	0.0173786
495.0000	0.0173338
494.5000	0.0172967
494.0000	0.0172682
493.5000	0.0171944
493.0000	0.0171705
492.5000	0.0171017
492.0000	0.0170743
491.5000	0.0170231
491.0000	0.0169724
490.5000	0.0169294
490.0000	0.0168969
489.5000	0.0168495
489.0000	0.0168217
488.5000	0.0167936
488.0000	0.0167692
487.5000	0.0167271
487.0000	0.0167246
486.5000	0.0167126
486.0000	0.0167091
485.5000	0.0166899
485.0000	0.0166737
484.5000	0.0166724
484.0000	0.0166842
483.5000	0.0166756
483.0000	0.0166748
482.5000	0.0166893
482.0000	0.0167183
481.5000	0.0167371
481.0000	0.0167491
480.5000	0.016757
480.0000	0.0167761
479.5000	0.0168095
479.0000	0.0168312
478.5000	0.0168665
478.0000	0.0168965
477.5000	0.0169388
477.0000	0.016991
476.5000	0.0170613
476.0000	0.0171412
475.5000	0.0172284
475.0000	0.0173096
474.5000	0.0174421
474.0000	0.0175462
473.5000	0.0176994
473.0000	0.0178259
472.5000	0.0180892
472.0000	0.0182399
471.5000	0.0185059
471.0000	0.0187304
470.5000	0.0190689
470.0000	0.0193269
469.5000	0.0197474
469.0000	0.0200663
468.5000	0.0206096
468.0000	0.0210237
467.5000	0.0216771
467.0000	0.0221556
466.5000	0.0229689
466.0000	0.0235608
465.5000	0.0245586
465.0000	0.0253123
464.5000	0.0265454
464.0000	0.0274519
463.5000	0.0289238
463.0000	0.0300056
462.5000	0.0317537
462.0000	0.0330267
461.5000	0.0351362
461.0000	0.0366818
460.5000	0.0392108
460.0000	0.0409982
459.5000	0.0439252
459.0000	0.0460339
458.5000	0.0493902
458.0000	0.0517877
457.5000	0.0556411
457.0000	0.0583549
456.5000	0.062604
456.0000	0.0655802
455.5000	0.070169
455.0000	0.0733201
454.5000	0.0781217
454.0000	0.0813523
453.5000	0.0862027
453.0000	0.0893626
452.5000	0.0939573
452.0000	0.0968811
451.5000	0.100951
451.0000	0.103448
450.5000	0.106801
450.0000	0.108754
449.5000	0.11119
449.0000	0.112506
448.5000	0.113916
448.0000	0.114536
447.5000	0.114936
447.0000	0.114897
446.5000	0.114433
446.0000	0.113835
445.5000	0.112633
445.0000	0.11163
444.5000	0.109902
444.0000	0.108595
443.5000	0.106501
443.0000	0.105028
442.5000	0.102756
442.0000	0.101193
441.5000	0.098815
441.0000	0.0972524
440.5000	0.0948795
440.0000	0.0933066
439.5000	0.0910316
439.0000	0.089564
438.5000	0.0874155
438.0000	0.0860301
437.5000	0.0841309
437.0000	0.0829404
436.5000	0.0813154
436.0000	0.0803684
435.5000	0.0791595
435.0000	0.0785033
434.5000	0.0777429
434.0000	0.0774365
433.5000	0.0772326
433.0000	0.0772471
432.5000	0.0775746
432.0000	0.0780072
431.5000	0.0788978
431.0000	0.079664
430.5000	0.0810511
430.0000	0.082141
429.5000	0.0839839
429.0000	0.0853274
428.5000	0.0875642
428.0000	0.0891241
427.5000	0.0915241
427.0000	0.0931752
426.5000	0.0956916
426.0000	0.0973182
425.5000	0.099714
425.0000	0.101231
424.5000	0.103372
424.0000	0.104686
423.5000	0.106434
423.0000	0.107429
422.5000	0.108626
422.0000	0.109222
421.5000	0.109888
421.0000	0.110126
420.5000	0.110167
420.0000	0.109994
419.5000	0.109482
419.0000	0.10897
418.5000	0.107909
418.0000	0.107052
417.5000	0.105612
417.0000	0.104496
416.5000	0.102692
416.0000	0.101411
415.5000	0.0993498
415.0000	0.0979018
414.5000	0.0957276
414.0000	0.0942934
413.5000	0.0921102
413.0000	0.0907001
412.5000	0.0885997
412.0000	0.0872813
411.5000	0.0853778
411.0000	0.0841523
410.5000	0.0824487
410.0000	0.0813949
409.5000	0.0799197
409.0000	0.0790565
408.5000	0.0779248
408.0000	0.0772643
407.5000	0.0764122
407.0000	0.0759439
406.5000	0.0753981
406.0000	0.0751604
405.5000	0.0748693
405.0000	0.0748041
404.5000	0.0747826
404.0000	0.0747929
403.5000	0.074972
403.0000	0.0751446
402.5000	0.0754629
402.0000	0.0756783
401.5000	0.0760043
401.0000	0.0762114
400.5000	0.0766008
400.0000	0.0768027
399.5000	0.0770475
399.0000	0.077216
398.5000	0.0773127
398.0000	0.077343
397.5000	0.0773438
397.0000	0.0772373
396.5000	0.0769558
396.0000	0.0767319
395.5000	0.0763442
395.0000	0.0759956
394.5000	0.075382
394.0000	0.074909
393.5000	0.0741673
393.0000	0.0736258
392.5000	0.0727974
392.0000	0.0721967
391.5000	0.0713105
391.0000	0.070721
390.5000	0.069893
390.0000	0.069379
389.5000	0.0685804
389.0000	0.0680872
388.5000	0.0674326
388.0000	0.0670767
387.5000	0.0665584
387.0000	0.0662691
386.5000	0.0659458
386.0000	0.0657897
385.5000	0.0656545
385.0000	0.0655944
384.5000	0.0656219
384.0000	0.0656974
383.5000	0.065898
383.0000	0.0661033
382.5000	0.0664336
382.0000	0.0667216
381.5000	0.0671946
381.0000	0.0675801
380.5000	0.0682001
380.0000	0.0686626
379.5000	0.0694212
379.0000	0.0699275
378.5000	0.0707891
378.0000	0.0713632
377.5000	0.0722044
377.0000	0.0727849
376.5000	0.0737282
376.0000	0.0744135
375.5000	0.0754667
375.0000	0.0761238
374.5000	0.0772243
374.0000	0.0779576
373.5000	0.0790856
373.0000	0.0799033
372.5000	0.0812799
372.0000	0.0822312
371.5000	0.0837876
371.0000	0.0849126
370.5000	0.0867749
370.0000	0.0882047
369.5000	0.0903449
369.0000	0.0919344
368.5000	0.0944647
368.0000	0.0963775
367.5000	0.0994393
367.0000	0.101578
366.5000	0.1051
366.0000	0.107609
365.5000	0.111694
365.0000	0.114596
364.5000	0.119346
364.0000	0.12272
363.5000	0.128149
363.0000	0.132009
362.5000	0.138098
362.0000	0.142382
361.5000	0.149162
361.0000	0.153969
360.5000	0.16171
360.0000	0.167086
359.5000	0.175664
359.0000	0.18161
358.5000	0.191034
358.0000	0.197584
357.5000	0.208014
357.0000	0.215238
356.5000	0.226621
356.0000	0.234607
355.5000	0.247184
355.0000	0.255874
354.5000	0.269438
354.0000	0.278847
353.5000	0.29357
353.0000	0.303636
352.5000	0.319323
352.0000	0.330155
351.5000	0.346817
351.0000	0.358108
350.5000	0.375631
350.0000	0.387567
349.5000	0.405664
349.0000	0.417982
348.5000	0.436783
348.0000	0.449413
347.5000	0.46863
347.0000	0.481536
346.5000	0.501003
346.0000	0.514107
345.5000	0.533629
345.0000	0.546511
344.5000	0.565852
344.0000	0.578669
343.5000	0.597675
343.0000	0.610172
342.5000	0.628458
342.0000	0.640448
341.5000	0.658038
341.0000	0.669394
340.5000	0.685831
340.0000	0.696462
339.5000	0.712008
339.0000	0.721952
338.5000	0.736115
338.0000	0.745119
337.5000	0.758066
337.0000	0.766234
336.5000	0.777902
336.0000	0.785259
335.5000	0.795661
335.0000	0.802363
334.5000	0.811572
334.0000	0.817299
333.5000	0.825082
333.0000	0.829956
332.5000	0.836598
332.0000	0.840736
331.5000	0.846239
331.0000	0.849473
330.5000	0.853814
330.0000	0.856279
329.5000	0.859354
329.0000	0.861017
328.5000	0.862798
328.0000	0.863626
327.5000	0.864334
327.0000	0.864552
326.5000	0.864113
326.0000	0.863444
325.5000	0.861862
325.0000	0.860569
324.5000	0.85804
324.0000	0.85617
323.5000	0.852962
323.0000	0.85057
322.5000	0.846607
322.0000	0.843845
321.5000	0.839487
321.0000	0.836476
320.5000	0.831736
320.0000	0.828523
319.5000	0.823653
319.0000	0.820397
318.5000	0.815551
318.0000	0.812384
317.5000	0.807764
317.0000	0.804634
316.5000	0.800154
316.0000	0.797266
315.5000	0.793208
315.0000	0.790629
314.5000	0.787097
314.0000	0.784879
313.5000	0.781894
313.0000	0.780119
312.5000	0.77795
312.0000	0.776672
311.5000	0.775211
311.0000	0.774557
310.5000	0.774135
310.0000	0.774198
309.5000	0.774941
309.0000	0.775782
308.5000	0.777732
308.0000	0.779466
307.5000	0.782757
307.0000	0.785493
306.5000	0.790375
306.0000	0.794192
305.5000	0.800893
305.0000	0.80599
304.5000	0.814525
304.0000	0.820798
303.5000	0.831272
303.0000	0.838979
302.5000	0.851406
302.0000	0.860451
301.5000	0.875053
301.0000	0.885624
300.5000	0.90253
300.0000	0.914485

##### Extended Information
[コメント情報]
試料名
コメント
測定者
所属
会社	関西大学　化学生命工学部

[データ情報]
作成日時	2014/06/04 18:47

データタイプ	等間隔データ
横軸	Wavelength [nm]
縦軸	Abs
スタート	700 nm
エンド	300 nm
データ間隔	0.5 nm
データ数	801     

[測定情報]
装置名	V-670
機種名	V-670
シリアル番号	B118261154

付属品名	USE-753
付属品シリアルNo.	B118261154
  セル長	0.1 mm

測定日時	2014/06/04 18:47

測光モード	Abs
測定範囲	700 - 300 nm
データ取込間隔	0.5 nm
UV/Vis バンド幅	1.0 nm
NIR バンド幅	8.0 nm
レスポンス	Medium
走査速度	400 nm/min
光源切換	340 nm
回折格子切換	850 nm
光源	D2/WI
フィルタ切換	ステップ
補正	ベースライン

