TITLE	
DATA TYPE	ULTRAVIOLET SPECTRUM
ORIGIN	JASCO
OWNER	
DATE	14/05/19
TIME	23:25:35
SPECTROMETER/DATA SYSTEM	
LOCALE	1041
RESOLUTION	
DELTAX	-0.5
XUNITS	NANOMETERS
YUNITS	ABSORBANCE
FIRSTX	  700.0000
LASTX	  300.0000
NPOINTS	     801
FIRSTY	     0.02043
MAXY	     1.77675
MINY	     0.01698
XYDATA
700.0000	0.0204285
699.5000	0.0204518
699.0000	0.0204899
698.5000	0.0205203
698.0000	0.0205389
697.5000	0.0205917
697.0000	0.0205986
696.5000	0.0206901
696.0000	0.0207174
695.5000	0.020742
695.0000	0.0207806
694.5000	0.0208025
694.0000	0.0208159
693.5000	0.0208182
693.0000	0.0208379
692.5000	0.0208614
692.0000	0.0208707
691.5000	0.0208829
691.0000	0.0208832
690.5000	0.0208719
690.0000	0.0208419
689.5000	0.0208034
689.0000	0.0207996
688.5000	0.0207671
688.0000	0.0207571
687.5000	0.0207443
687.0000	0.0207183
686.5000	0.0206858
686.0000	0.0206383
685.5000	0.0205834
685.0000	0.020525
684.5000	0.0204736
684.0000	0.0204218
683.5000	0.0203685
683.0000	0.0203233
682.5000	0.0202461
682.0000	0.020211
681.5000	0.0201197
681.0000	0.0200356
680.5000	0.0199444
680.0000	0.0198741
679.5000	0.0197887
679.0000	0.0197285
678.5000	0.0196509
678.0000	0.0195857
677.5000	0.0195338
677.0000	0.0194552
676.5000	0.0193556
676.0000	0.0193016
675.5000	0.019205
675.0000	0.0191255
674.5000	0.0190493
674.0000	0.0189923
673.5000	0.0189052
673.0000	0.0188355
672.5000	0.0187347
672.0000	0.0186762
671.5000	0.0185834
671.0000	0.0185197
670.5000	0.0184309
670.0000	0.0183678
669.5000	0.0182929
669.0000	0.0182227
668.5000	0.0181466
668.0000	0.0180888
667.5000	0.0180011
667.0000	0.0179707
666.5000	0.0178698
666.0000	0.0178186
665.5000	0.0177406
665.0000	0.0176844
664.5000	0.0176032
664.0000	0.0175609
663.5000	0.0174839
663.0000	0.0174644
662.5000	0.0173858
662.0000	0.0173409
661.5000	0.0173017
661.0000	0.0172888
660.5000	0.0172309
660.0000	0.0172158
659.5000	0.0171801
659.0000	0.0171583
658.5000	0.0171027
658.0000	0.0170826
657.5000	0.0170646
657.0000	0.0170793
656.5000	0.017042
656.0000	0.0170373
655.5000	0.017031
655.0000	0.0170309
654.5000	0.016998
654.0000	0.0169798
653.5000	0.0169887
653.0000	0.0169996
652.5000	0.0170161
652.0000	0.0170477
651.5000	0.0170777
651.0000	0.0170946
650.5000	0.0171321
650.0000	0.017162
649.5000	0.0172039
649.0000	0.0172415
648.5000	0.017272
648.0000	0.0173252
647.5000	0.017389
647.0000	0.0174526
646.5000	0.0175033
646.0000	0.0175711
645.5000	0.0176178
645.0000	0.0176662
644.5000	0.017734
644.0000	0.0177812
643.5000	0.0178823
643.0000	0.0179537
642.5000	0.0180352
642.0000	0.0181207
641.5000	0.0182297
641.0000	0.0182973
640.5000	0.0184145
640.0000	0.0185141
639.5000	0.018615
639.0000	0.0187311
638.5000	0.0188767
638.0000	0.0189767
637.5000	0.0191146
637.0000	0.0192184
636.5000	0.0193569
636.0000	0.0194793
635.5000	0.019627
635.0000	0.0197289
634.5000	0.0198811
634.0000	0.020003
633.5000	0.0201685
633.0000	0.0203051
632.5000	0.0204821
632.0000	0.0206128
631.5000	0.0208005
631.0000	0.0209649
630.5000	0.02116
630.0000	0.0213096
629.5000	0.021511
629.0000	0.0216702
628.5000	0.0219145
628.0000	0.0220933
627.5000	0.0223233
627.0000	0.0224874
626.5000	0.0227189
626.0000	0.0228805
625.5000	0.0231469
625.0000	0.0233246
624.5000	0.0235585
624.0000	0.0237372
623.5000	0.0240112
623.0000	0.0242067
622.5000	0.0244757
622.0000	0.0246581
621.5000	0.0249642
621.0000	0.0251758
620.5000	0.0254694
620.0000	0.0256963
619.5000	0.0260346
619.0000	0.026264
618.5000	0.0266179
618.0000	0.0268693
617.5000	0.0272446
617.0000	0.0274759
616.5000	0.027862
616.0000	0.0281284
615.5000	0.0285456
615.0000	0.0288367
614.5000	0.0292473
614.0000	0.0295332
613.5000	0.0299761
613.0000	0.030294
612.5000	0.0307586
612.0000	0.0310758
611.5000	0.0315463
611.0000	0.0318687
610.5000	0.0323904
610.0000	0.0327404
609.5000	0.0332685
609.0000	0.033634
608.5000	0.0341548
608.0000	0.0345451
607.5000	0.0350997
607.0000	0.0354717
606.5000	0.0360489
606.0000	0.0364533
605.5000	0.0370648
605.0000	0.0374969
604.5000	0.038117
604.0000	0.0385355
603.5000	0.0392002
603.0000	0.0396555
602.5000	0.040347
602.0000	0.0408255
601.5000	0.0415488
601.0000	0.0420411
600.5000	0.0428302
600.0000	0.0434569
599.5000	0.0442116
599.0000	0.0447466
598.5000	0.045562
598.0000	0.0461321
597.5000	0.046997
597.0000	0.0476107
596.5000	0.0485112
596.0000	0.0491278
595.5000	0.0500638
595.0000	0.0507195
594.5000	0.0516966
594.0000	0.0523756
593.5000	0.0534046
593.0000	0.0541389
592.5000	0.0552234
592.0000	0.0559624
591.5000	0.0570882
591.0000	0.0578744
590.5000	0.0590083
590.0000	0.0598125
589.5000	0.0610446
589.0000	0.061896
588.5000	0.0631744
588.0000	0.0640635
587.5000	0.0653971
587.0000	0.0663106
586.5000	0.0676964
586.0000	0.0686365
585.5000	0.0700974
585.0000	0.0710831
584.5000	0.0726033
584.0000	0.0736523
583.5000	0.0752547
583.0000	0.0763336
582.5000	0.0779857
582.0000	0.0791085
581.5000	0.0808242
581.0000	0.0820092
580.5000	0.0837937
580.0000	0.0850334
579.5000	0.0868924
579.0000	0.0881803
578.5000	0.0901318
578.0000	0.0914686
577.5000	0.0934917
577.0000	0.0948867
576.5000	0.0970013
576.0000	0.0984269
575.5000	0.100628
575.0000	0.102131
574.5000	0.104424
574.0000	0.105968
573.5000	0.108312
573.0000	0.109949
572.5000	0.112402
572.0000	0.114055
571.5000	0.116586
571.0000	0.118307
570.5000	0.120927
570.0000	0.122702
569.5000	0.125433
569.0000	0.127276
568.5000	0.13007
568.0000	0.131973
567.5000	0.134886
567.0000	0.136846
566.5000	0.139803
566.0000	0.141824
565.5000	0.144896
565.0000	0.146971
564.5000	0.150126
564.0000	0.152247
563.5000	0.155452
563.0000	0.157598
562.5000	0.160883
562.0000	0.163089
561.5000	0.166417
561.0000	0.168675
560.5000	0.172102
560.0000	0.174384
559.5000	0.177842
559.0000	0.180176
558.5000	0.183655
558.0000	0.186017
557.5000	0.189579
557.0000	0.191961
556.5000	0.195542
556.0000	0.197943
555.5000	0.201572
555.0000	0.203993
554.5000	0.207616
554.0000	0.210031
553.5000	0.213663
553.0000	0.216061
552.5000	0.219649
552.0000	0.222032
551.5000	0.225545
551.0000	0.227884
550.5000	0.231373
550.0000	0.233689
549.5000	0.237067
549.0000	0.239275
548.5000	0.242587
548.0000	0.24474
547.5000	0.247908
547.0000	0.249984
546.5000	0.25304
546.0000	0.255007
545.5000	0.2579
545.0000	0.259807
544.5000	0.26249
544.0000	0.264233
543.5000	0.266758
543.0000	0.268388
542.5000	0.270698
542.0000	0.272145
541.5000	0.274221
541.0000	0.275534
540.5000	0.277392
540.0000	0.278533
539.5000	0.280133
539.0000	0.281106
538.5000	0.282453
538.0000	0.283273
537.5000	0.284337
537.0000	0.284966
536.5000	0.285783
536.0000	0.286246
535.5000	0.286785
535.0000	0.287068
534.5000	0.287343
534.0000	0.287428
533.5000	0.287434
533.0000	0.287358
532.5000	0.287136
532.0000	0.286869
531.5000	0.286369
531.0000	0.28594
530.5000	0.285206
530.0000	0.284635
529.5000	0.283669
529.0000	0.282941
528.5000	0.28175
528.0000	0.280886
527.5000	0.279465
527.0000	0.278464
526.5000	0.276859
526.0000	0.275726
525.5000	0.273946
525.0000	0.272698
524.5000	0.270765
524.0000	0.269395
523.5000	0.267302
523.0000	0.265835
522.5000	0.263602
522.0000	0.26207
521.5000	0.259719
521.0000	0.258088
520.5000	0.255644
520.0000	0.253923
519.5000	0.25139
519.0000	0.249683
518.5000	0.247101
518.0000	0.245328
517.5000	0.242692
517.0000	0.240897
516.5000	0.238228
516.0000	0.236422
515.5000	0.233716
515.0000	0.231929
514.5000	0.229211
514.0000	0.227385
513.5000	0.224682
513.0000	0.222879
512.5000	0.220174
512.0000	0.218366
511.5000	0.215675
511.0000	0.213888
510.5000	0.211217
510.0000	0.20942
509.5000	0.206751
509.0000	0.204966
508.5000	0.202316
508.0000	0.200563
507.5000	0.197965
507.0000	0.196231
506.5000	0.193653
506.0000	0.191967
505.5000	0.189404
505.0000	0.187711
504.5000	0.185202
504.0000	0.183531
503.5000	0.181049
503.0000	0.179405
502.5000	0.176946
502.0000	0.175324
501.5000	0.17289
501.0000	0.171288
500.5000	0.168932
500.0000	0.167352
499.5000	0.164962
499.0000	0.163407
498.5000	0.161069
498.0000	0.159523
497.5000	0.157214
497.0000	0.155665
496.5000	0.153395
496.0000	0.151896
495.5000	0.149625
495.0000	0.148131
494.5000	0.145882
494.0000	0.144406
493.5000	0.142189
493.0000	0.14072
492.5000	0.138556
492.0000	0.137127
491.5000	0.134991
491.0000	0.13358
490.5000	0.131493
490.0000	0.1301
489.5000	0.128059
489.0000	0.126716
488.5000	0.124689
488.0000	0.12336
487.5000	0.121388
487.0000	0.12009
486.5000	0.118166
486.0000	0.116881
485.5000	0.114974
485.0000	0.11374
484.5000	0.111891
484.0000	0.110672
483.5000	0.108862
483.0000	0.107674
482.5000	0.105916
482.0000	0.104785
481.5000	0.103086
481.0000	0.101959
480.5000	0.100323
480.0000	0.0992397
479.5000	0.0976524
479.0000	0.0966113
478.5000	0.0950791
478.0000	0.0941234
477.5000	0.0926764
477.0000	0.0917267
476.5000	0.09036
476.0000	0.0894579
475.5000	0.0881409
475.0000	0.0872912
474.5000	0.0860503
474.0000	0.0852734
473.5000	0.0841364
473.0000	0.0833964
472.5000	0.0823349
472.0000	0.081692
471.5000	0.0807021
471.0000	0.0800967
470.5000	0.0792321
470.0000	0.0787093
469.5000	0.077999
469.0000	0.0775615
468.5000	0.0769367
468.0000	0.0766104
467.5000	0.0761655
467.0000	0.0759163
466.5000	0.0756436
466.0000	0.0755458
465.5000	0.0754558
465.0000	0.0754865
464.5000	0.0756181
464.0000	0.0758353
463.5000	0.0762243
463.0000	0.0765802
462.5000	0.0772714
462.0000	0.0778935
461.5000	0.0789024
461.0000	0.0797003
460.5000	0.0810967
460.0000	0.0821546
459.5000	0.0839149
459.0000	0.0852143
458.5000	0.0873614
458.0000	0.0889264
457.5000	0.0913842
457.0000	0.0931577
456.5000	0.0959109
456.0000	0.0977979
455.5000	0.100664
455.0000	0.102602
454.5000	0.105482
454.0000	0.107358
453.5000	0.110024
453.0000	0.111712
452.5000	0.11406
452.0000	0.115442
451.5000	0.117262
451.0000	0.118279
450.5000	0.11946
450.0000	0.120039
449.5000	0.120571
449.0000	0.120705
448.5000	0.120604
448.0000	0.120335
447.5000	0.119729
447.0000	0.119091
446.5000	0.117893
446.0000	0.116987
445.5000	0.115437
445.0000	0.114251
444.5000	0.112367
444.0000	0.11102
443.5000	0.108964
443.0000	0.107538
442.5000	0.105336
442.0000	0.103846
441.5000	0.10158
441.0000	0.100023
440.5000	0.0977974
440.0000	0.0963439
439.5000	0.0941625
439.0000	0.0927414
438.5000	0.0907429
438.0000	0.0895107
437.5000	0.0877748
437.0000	0.0866631
436.5000	0.0851817
436.0000	0.0842939
435.5000	0.0831528
435.0000	0.0825499
434.5000	0.0818065
434.0000	0.0814434
433.5000	0.0811175
433.0000	0.0810506
432.5000	0.0812152
432.0000	0.081429
431.5000	0.081904
431.0000	0.0823763
430.5000	0.0832782
430.0000	0.0839645
429.5000	0.085161
429.0000	0.0860058
428.5000	0.0873685
428.0000	0.0883184
427.5000	0.0897762
427.0000	0.0907249
426.5000	0.0920981
426.0000	0.0929756
425.5000	0.0942167
425.0000	0.0949728
424.5000	0.0959615
424.0000	0.0965289
423.5000	0.0971759
423.0000	0.0974823
422.5000	0.0977474
422.0000	0.0977775
421.5000	0.0976649
421.0000	0.0974447
420.5000	0.0969306
420.0000	0.0962013
419.5000	0.0953113
419.0000	0.0946494
418.5000	0.0935086
418.0000	0.0927135
417.5000	0.0913358
417.0000	0.0903886
416.5000	0.0888481
416.0000	0.0878486
415.5000	0.0862318
415.0000	0.0851525
414.5000	0.08353
414.0000	0.0824712
413.5000	0.0808601
413.0000	0.0798399
412.5000	0.0783754
412.0000	0.0774305
411.5000	0.0760432
411.0000	0.0752129
410.5000	0.0740216
410.0000	0.0733581
409.5000	0.072386
409.0000	0.0718267
408.5000	0.0710814
408.0000	0.0706911
407.5000	0.0701706
407.0000	0.0699035
406.5000	0.069635
406.0000	0.0695134
405.5000	0.069446
405.0000	0.0694772
404.5000	0.0695729
404.0000	0.0696707
403.5000	0.0697971
403.0000	0.0699281
402.5000	0.070196
402.0000	0.0704224
401.5000	0.0706386
401.0000	0.0708004
400.5000	0.0710146
400.0000	0.071165
399.5000	0.0713088
399.0000	0.0713502
398.5000	0.0713703
398.0000	0.0713865
397.5000	0.0713403
397.0000	0.0712518
396.5000	0.0711022
396.0000	0.0709602
395.5000	0.0706532
395.0000	0.0704489
394.5000	0.070118
394.0000	0.0698846
393.5000	0.0694387
393.0000	0.0691945
392.5000	0.0687661
392.0000	0.0685084
391.5000	0.0681
391.0000	0.0679037
390.5000	0.0675439
390.0000	0.0673106
389.5000	0.0669695
389.0000	0.0667994
388.5000	0.0666055
388.0000	0.0665104
387.5000	0.0663816
387.0000	0.0663619
386.5000	0.0663633
386.0000	0.0663851
385.5000	0.0664794
385.0000	0.0665774
384.5000	0.0667108
384.0000	0.0668945
383.5000	0.0671742
383.0000	0.0674309
382.5000	0.0678143
382.0000	0.0680836
381.5000	0.0685153
381.0000	0.0688369
380.5000	0.0692813
380.0000	0.0696122
379.5000	0.0701407
379.0000	0.0704888
378.5000	0.0709693
378.0000	0.0713224
377.5000	0.0718303
377.0000	0.072161
376.5000	0.0726357
376.0000	0.0729974
375.5000	0.0735419
375.0000	0.0738417
374.5000	0.0743769
374.0000	0.0747356
373.5000	0.0752124
373.0000	0.075523
372.5000	0.0760625
372.0000	0.0764183
371.5000	0.077042
371.0000	0.0773578
370.5000	0.0779557
370.0000	0.0779782
369.5000	0.0784671
369.0000	0.0789129
368.5000	0.0794979
368.0000	0.0798466
367.5000	0.0805048
367.0000	0.0809373
366.5000	0.0816576
366.0000	0.0821406
365.5000	0.0828385
365.0000	0.0833543
364.5000	0.0841421
364.0000	0.0846027
363.5000	0.0853189
363.0000	0.0858738
362.5000	0.0865702
362.0000	0.0870681
361.5000	0.0878764
361.0000	0.0883868
360.5000	0.0890485
360.0000	0.0895071
359.5000	0.0901971
359.0000	0.0906721
358.5000	0.091283
358.0000	0.0917301
357.5000	0.0923479
357.0000	0.0927084
356.5000	0.0933106
356.0000	0.0937732
355.5000	0.0942143
355.0000	0.0945332
354.5000	0.0950545
354.0000	0.095431
353.5000	0.0959078
353.0000	0.0962063
352.5000	0.0965568
352.0000	0.0968148
351.5000	0.0971406
351.0000	0.0974073
350.5000	0.0976843
350.0000	0.0978816
349.5000	0.0982001
349.0000	0.0984354
348.5000	0.0987041
348.0000	0.0989135
347.5000	0.0992165
347.0000	0.0994928
346.5000	0.0998357
346.0000	0.100091
345.5000	0.100517
345.0000	0.100747
344.5000	0.101205
344.0000	0.101521
343.5000	0.101947
343.0000	0.102233
342.5000	0.102788
342.0000	0.103229
341.5000	0.103912
341.0000	0.104357
340.5000	0.104989
340.0000	0.105931
339.5000	0.106798
339.0000	0.107493
338.5000	0.108597
338.0000	0.109395
337.5000	0.110648
337.0000	0.111601
336.5000	0.113171
336.0000	0.114237
335.5000	0.11603
335.0000	0.117375
334.5000	0.119487
334.0000	0.120988
333.5000	0.12352
333.0000	0.125344
332.5000	0.128258
332.0000	0.130349
331.5000	0.133726
331.0000	0.13607
330.5000	0.139962
330.0000	0.142692
329.5000	0.147158
329.0000	0.150312
328.5000	0.155428
328.0000	0.159058
327.5000	0.164869
327.0000	0.169074
326.5000	0.175727
326.0000	0.180523
325.5000	0.188115
325.0000	0.19343
324.5000	0.202047
324.0000	0.208153
323.5000	0.217919
323.0000	0.224799
322.5000	0.235752
322.0000	0.243552
321.5000	0.255869
321.0000	0.264612
320.5000	0.278478
320.0000	0.288216
319.5000	0.303648
319.0000	0.314567
318.5000	0.332021
318.0000	0.344264
317.5000	0.363686
317.0000	0.377293
316.5000	0.398852
316.0000	0.414029
315.5000	0.437903
315.0000	0.454701
314.5000	0.481138
314.0000	0.499613
313.5000	0.528857
313.0000	0.549266
312.5000	0.581394
312.0000	0.603731
311.5000	0.639005
311.0000	0.663509
310.5000	0.702107
310.0000	0.729001
309.5000	0.77115
309.0000	0.800566
308.5000	0.846524
308.0000	0.878419
307.5000	0.928466
307.0000	0.963192
306.5000	1.0177
306.0000	1.05547
305.5000	1.11441
305.0000	1.15516
304.5000	1.21878
304.0000	1.26274
303.5000	1.33115
303.0000	1.37848
302.5000	1.45195
302.0000	1.50274
301.5000	1.58122
301.0000	1.63541
300.5000	1.71923
300.0000	1.77675

##### Extended Information
[コメント情報]
試料名
コメント
測定者
所属
会社	関西大学　化学生命工学部

[データ情報]
作成日時	2014/05/19 23:25

データタイプ	等間隔データ
横軸	Wavelength [nm]
縦軸	Abs
スタート	700 nm
エンド	300 nm
データ間隔	0.5 nm
データ数	801     

[測定情報]
装置名	V-670
機種名	V-670
シリアル番号	B118261154

付属品名	USE-753
付属品シリアルNo.	B118261154
  セル長	0.1 mm

測定日時	2014/05/19 23:25

測光モード	Abs
測定範囲	700 - 300 nm
データ取込間隔	0.5 nm
UV/Vis バンド幅	1.0 nm
NIR バンド幅	8.0 nm
レスポンス	Medium
走査速度	400 nm/min
光源切換	340 nm
回折格子切換	850 nm
光源	D2/WI
フィルタ切換	ステップ
補正	ベースライン

