TITLE	
DATA TYPE	ULTRAVIOLET SPECTRUM
ORIGIN	JASCO
OWNER	
DATE	14/02/28
TIME	17:18:11
SPECTROMETER/DATA SYSTEM	
LOCALE	1041
RESOLUTION	
DELTAX	-0.5
XUNITS	NANOMETERS
YUNITS	ABSORBANCE
FIRSTX	  700.0000
LASTX	  300.0000
NPOINTS	     801
FIRSTY	     0.03218
MAXY	     0.74222
MINY	     0.02917
XYDATA
700.0000	0.0321772
699.5000	0.0321303
699.0000	0.0320986
698.5000	0.0320456
698.0000	0.0320203
697.5000	0.0319671
697.0000	0.0319405
696.5000	0.03189
696.0000	0.0318322
695.5000	0.0317725
695.0000	0.0317333
694.5000	0.0316688
694.0000	0.0316228
693.5000	0.031545
693.0000	0.0315193
692.5000	0.0314497
692.0000	0.0314071
691.5000	0.0313341
691.0000	0.0312897
690.5000	0.0312123
690.0000	0.031155
689.5000	0.0310919
689.0000	0.031042
688.5000	0.0309543
688.0000	0.030915
687.5000	0.0308484
687.0000	0.030807
686.5000	0.0307285
686.0000	0.0306681
685.5000	0.030592
685.0000	0.0305358
684.5000	0.0304456
684.0000	0.0304033
683.5000	0.0303328
683.0000	0.0302951
682.5000	0.0302439
682.0000	0.0301958
681.5000	0.0300802
681.0000	0.0300205
680.5000	0.0299569
680.0000	0.0299046
679.5000	0.0298659
679.0000	0.0298308
678.5000	0.0298035
678.0000	0.0297693
677.5000	0.0297323
677.0000	0.0296845
676.5000	0.029636
676.0000	0.0296108
675.5000	0.0295953
675.0000	0.0296032
674.5000	0.0295862
674.0000	0.0295544
673.5000	0.0295272
673.0000	0.0294918
672.5000	0.0294577
672.0000	0.0294249
671.5000	0.0293868
671.0000	0.0293794
670.5000	0.0293575
670.0000	0.0293338
669.5000	0.029293
669.0000	0.0292884
668.5000	0.0292706
668.0000	0.0292575
667.5000	0.0292404
667.0000	0.029233
666.5000	0.0292143
666.0000	0.0292139
665.5000	0.0291917
665.0000	0.0291805
664.5000	0.0291787
664.0000	0.0291742
663.5000	0.0291794
663.0000	0.0291749
662.5000	0.029185
662.0000	0.0291856
661.5000	0.0291683
661.0000	0.0291927
660.5000	0.0292078
660.0000	0.0292224
659.5000	0.0292586
659.0000	0.0292882
658.5000	0.0293282
658.0000	0.0293139
657.5000	0.0293669
657.0000	0.0293724
656.5000	0.0294163
656.0000	0.0294286
655.5000	0.0294889
655.0000	0.0295039
654.5000	0.0295382
654.0000	0.029569
653.5000	0.029617
653.0000	0.0296584
652.5000	0.029724
652.0000	0.0297445
651.5000	0.0297961
651.0000	0.029824
650.5000	0.0299142
650.0000	0.0299575
649.5000	0.0300168
649.0000	0.0300383
648.5000	0.0301127
648.0000	0.0301679
647.5000	0.0302484
647.0000	0.0302986
646.5000	0.0303656
646.0000	0.0304097
645.5000	0.03052
645.0000	0.0305782
644.5000	0.03066
644.0000	0.0306918
643.5000	0.0307833
643.0000	0.0308451
642.5000	0.0309699
642.0000	0.0310406
641.5000	0.0311096
641.0000	0.0311603
640.5000	0.0312598
640.0000	0.0313329
639.5000	0.0314354
639.0000	0.0314909
638.5000	0.0316262
638.0000	0.0317057
637.5000	0.0318463
637.0000	0.0319034
636.5000	0.0319973
636.0000	0.0320751
635.5000	0.0322026
635.0000	0.032298
634.5000	0.0324174
634.0000	0.0324879
633.5000	0.0326058
633.0000	0.0326863
632.5000	0.0328263
632.0000	0.0328946
631.5000	0.0330435
631.0000	0.0331089
630.5000	0.0332814
630.0000	0.0333714
629.5000	0.0335286
629.0000	0.0336308
628.5000	0.0337909
628.0000	0.0338892
627.5000	0.0340468
627.0000	0.034153
626.5000	0.0343151
626.0000	0.0344185
625.5000	0.0345982
625.0000	0.0346796
624.5000	0.0348562
624.0000	0.034958
623.5000	0.0351459
623.0000	0.0352514
622.5000	0.0354211
622.0000	0.0355301
621.5000	0.035692
621.0000	0.0358061
620.5000	0.0359698
620.0000	0.0360924
619.5000	0.0362947
619.0000	0.0363917
618.5000	0.0365909
618.0000	0.0367008
617.5000	0.0368861
617.0000	0.0369978
616.5000	0.0371765
616.0000	0.037302
615.5000	0.0375219
615.0000	0.037649
614.5000	0.0378685
614.0000	0.0380095
613.5000	0.0382202
613.0000	0.038342
612.5000	0.0385607
612.0000	0.03871
611.5000	0.0389472
611.0000	0.0390968
610.5000	0.0393119
610.0000	0.0394741
609.5000	0.0397085
609.0000	0.0398428
608.5000	0.0400969
608.0000	0.040263
607.5000	0.0405179
607.0000	0.0406929
606.5000	0.0409519
606.0000	0.0411279
605.5000	0.0413871
605.0000	0.0415513
604.5000	0.0418333
604.0000	0.0420317
603.5000	0.0423069
603.0000	0.0424785
602.5000	0.0427743
602.0000	0.0429568
601.5000	0.0432164
601.0000	0.0434019
600.5000	0.0436691
600.0000	0.0436512
599.5000	0.0439049
599.0000	0.0440857
598.5000	0.0443759
598.0000	0.0445408
597.5000	0.044834
597.0000	0.04503
596.5000	0.0453069
596.0000	0.0454979
595.5000	0.0457865
595.0000	0.0459933
594.5000	0.0463128
594.0000	0.0465251
593.5000	0.0468466
593.0000	0.0470654
592.5000	0.0473848
592.0000	0.0475917
591.5000	0.047928
591.0000	0.0481602
590.5000	0.0485171
590.0000	0.0487541
589.5000	0.049097
589.0000	0.0493341
588.5000	0.0496957
588.0000	0.0499495
587.5000	0.0503296
587.0000	0.0505898
586.5000	0.0509916
586.0000	0.0512746
585.5000	0.0517027
585.0000	0.0519846
584.5000	0.0524187
584.0000	0.0527049
583.5000	0.0531463
583.0000	0.0534691
582.5000	0.053934
582.0000	0.0542379
581.5000	0.0547239
581.0000	0.055043
580.5000	0.0555484
580.0000	0.0558722
579.5000	0.0563728
579.0000	0.0567278
578.5000	0.0572527
578.0000	0.0575909
577.5000	0.0581383
577.0000	0.0585053
576.5000	0.0590371
576.0000	0.0594129
575.5000	0.0599963
575.0000	0.0603839
574.5000	0.0609868
574.0000	0.061387
573.5000	0.0620034
573.0000	0.0624075
572.5000	0.0630431
572.0000	0.0634693
571.5000	0.0641632
571.0000	0.0646036
570.5000	0.0653089
570.0000	0.0657858
569.5000	0.0665146
569.0000	0.0669957
568.5000	0.0677473
568.0000	0.0682679
567.5000	0.069046
567.0000	0.0695734
566.5000	0.0703833
566.0000	0.0709253
565.5000	0.0717713
565.0000	0.0723267
564.5000	0.0731957
564.0000	0.0737837
563.5000	0.074673
563.0000	0.0752673
562.5000	0.0761949
562.0000	0.076814
561.5000	0.0777366
561.0000	0.0783723
560.5000	0.0793446
560.0000	0.0799898
559.5000	0.0809922
559.0000	0.0816622
558.5000	0.0826945
558.0000	0.0833947
557.5000	0.0844555
557.0000	0.0851437
556.5000	0.0862377
556.0000	0.0869804
555.5000	0.0880879
555.0000	0.0888415
554.5000	0.0899653
554.0000	0.0907353
553.5000	0.0918883
553.0000	0.0926789
552.5000	0.09385
552.0000	0.0946143
551.5000	0.0958093
551.0000	0.0966062
550.5000	0.0978263
550.0000	0.0986216
549.5000	0.0998198
549.0000	0.100617
548.5000	0.101839
548.0000	0.102652
547.5000	0.10388
547.0000	0.104698
546.5000	0.105907
546.0000	0.106753
545.5000	0.107991
545.0000	0.108793
544.5000	0.109986
544.0000	0.110793
543.5000	0.111988
543.0000	0.11279
542.5000	0.113967
542.0000	0.114752
541.5000	0.115889
541.0000	0.116654
540.5000	0.117757
540.0000	0.118458
539.5000	0.119482
539.0000	0.120152
538.5000	0.121138
538.0000	0.121796
537.5000	0.12271
537.0000	0.12329
536.5000	0.124141
536.0000	0.124683
535.5000	0.125455
535.0000	0.125952
534.5000	0.126638
534.0000	0.127069
533.5000	0.12768
533.0000	0.128046
532.5000	0.128561
532.0000	0.128862
531.5000	0.129271
531.0000	0.12952
530.5000	0.129832
530.0000	0.129983
529.5000	0.130172
529.0000	0.130262
528.5000	0.130342
528.0000	0.130349
527.5000	0.130329
527.0000	0.130262
526.5000	0.13011
526.0000	0.129968
525.5000	0.12972
525.0000	0.129519
524.5000	0.129151
524.0000	0.128874
523.5000	0.128414
523.0000	0.128083
522.5000	0.127541
522.0000	0.12714
521.5000	0.126511
521.0000	0.126068
520.5000	0.125352
520.0000	0.123971
519.5000	0.123181
519.0000	0.122647
518.5000	0.121843
518.0000	0.121279
517.5000	0.120405
517.0000	0.119795
516.5000	0.118877
516.0000	0.118253
515.5000	0.117318
515.0000	0.116665
514.5000	0.115695
514.0000	0.115026
513.5000	0.114012
513.0000	0.113352
512.5000	0.112342
512.0000	0.111635
511.5000	0.1106
511.0000	0.109927
510.5000	0.108902
510.0000	0.108237
509.5000	0.107227
509.0000	0.106543
508.5000	0.105542
508.0000	0.104853
507.5000	0.103853
507.0000	0.103204
506.5000	0.102218
506.0000	0.101566
505.5000	0.10059
505.0000	0.0999437
504.5000	0.0989873
504.0000	0.0983498
503.5000	0.0974023
503.0000	0.0967588
502.5000	0.0958271
502.0000	0.0951988
501.5000	0.0942801
501.0000	0.093679
500.5000	0.0927637
500.0000	0.0921689
499.5000	0.0912759
499.0000	0.0906888
498.5000	0.089832
498.0000	0.0892445
497.5000	0.0883755
497.0000	0.0878013
496.5000	0.0869955
496.0000	0.0864395
495.5000	0.0856256
495.0000	0.0851043
494.5000	0.0843176
494.0000	0.0838048
493.5000	0.0830207
493.0000	0.0825266
492.5000	0.0817849
492.0000	0.0812902
491.5000	0.0805657
491.0000	0.0800829
490.5000	0.0793743
490.0000	0.0788919
489.5000	0.0781926
489.0000	0.0777316
488.5000	0.077065
488.0000	0.0766136
487.5000	0.0759493
487.0000	0.0755484
486.5000	0.0749295
486.0000	0.0745208
485.5000	0.0739229
485.0000	0.0735491
484.5000	0.0729799
484.0000	0.0726288
483.5000	0.0721204
483.0000	0.0717733
482.5000	0.0712663
482.0000	0.0709284
481.5000	0.0704642
481.0000	0.0701572
480.5000	0.0697066
480.0000	0.0694162
479.5000	0.0690242
479.0000	0.0687821
478.5000	0.0684269
478.0000	0.0682203
477.5000	0.0679011
477.0000	0.0677044
476.5000	0.067475
476.0000	0.0673356
475.5000	0.0671732
475.0000	0.067072
474.5000	0.0669777
474.0000	0.0669548
473.5000	0.0669559
473.0000	0.0669755
472.5000	0.0670568
472.0000	0.067156
471.5000	0.0673886
471.0000	0.0675825
470.5000	0.0679528
470.0000	0.0682408
469.5000	0.0687874
469.0000	0.0692062
468.5000	0.0699477
468.0000	0.0705166
467.5000	0.0714551
467.0000	0.0721534
466.5000	0.0733692
466.0000	0.0743055
465.5000	0.0758019
465.0000	0.0769341
464.5000	0.0787889
464.0000	0.0801709
463.5000	0.0824163
463.0000	0.0840547
462.5000	0.0867099
462.0000	0.0886548
461.5000	0.0917904
461.0000	0.0940369
460.5000	0.0976658
460.0000	0.100235
459.5000	0.104331
459.0000	0.107221
458.5000	0.111746
458.0000	0.114886
457.5000	0.119737
457.0000	0.123035
456.5000	0.128101
456.0000	0.131465
455.5000	0.136497
455.0000	0.139772
454.5000	0.144544
454.0000	0.147562
453.5000	0.151782
453.0000	0.154388
452.5000	0.157847
452.0000	0.159883
451.5000	0.162454
451.0000	0.163835
450.5000	0.165383
450.0000	0.166093
449.5000	0.166671
449.0000	0.166695
448.5000	0.166287
448.0000	0.165755
447.5000	0.164557
447.0000	0.163512
446.5000	0.161659
446.0000	0.160267
445.5000	0.157945
445.0000	0.156301
444.5000	0.153634
444.0000	0.151801
443.5000	0.14897
443.0000	0.147042
442.5000	0.144166
442.0000	0.142252
441.5000	0.13941
441.0000	0.137553
440.5000	0.134823
440.0000	0.133063
439.5000	0.130563
439.0000	0.129001
438.5000	0.126834
438.0000	0.125516
437.5000	0.123776
437.0000	0.122742
436.5000	0.121432
436.0000	0.120774
435.5000	0.120049
435.0000	0.119714
434.5000	0.119553
434.0000	0.11968
433.5000	0.120151
433.0000	0.120645
432.5000	0.121669
432.0000	0.122542
431.5000	0.124103
431.0000	0.125275
430.5000	0.127225
430.0000	0.128656
429.5000	0.130898
429.0000	0.132464
428.5000	0.134899
428.0000	0.13651
427.5000	0.138872
427.0000	0.140392
426.5000	0.142527
426.0000	0.143847
425.5000	0.145629
425.0000	0.146652
424.5000	0.14796
424.0000	0.148671
423.5000	0.14941
423.0000	0.149706
422.5000	0.149843
422.0000	0.149724
421.5000	0.149261
421.0000	0.148739
420.5000	0.147691
420.0000	0.146798
419.5000	0.145306
419.0000	0.144162
418.5000	0.142282
418.0000	0.140908
417.5000	0.138712
417.0000	0.137147
416.5000	0.134815
416.0000	0.1332
415.5000	0.130804
415.0000	0.129169
414.5000	0.126718
414.0000	0.125125
413.5000	0.122823
413.0000	0.121325
412.5000	0.119277
412.0000	0.117982
411.5000	0.116116
411.0000	0.114993
410.5000	0.113459
410.0000	0.112537
409.5000	0.111323
409.0000	0.110636
408.5000	0.109796
408.0000	0.109346
407.5000	0.108857
407.0000	0.108588
406.5000	0.108354
406.0000	0.108297
405.5000	0.108343
405.0000	0.108446
404.5000	0.108646
404.0000	0.108867
403.5000	0.109223
403.0000	0.109494
402.5000	0.109886
402.0000	0.110138
401.5000	0.110467
401.0000	0.110655
400.5000	0.110922
400.0000	0.111043
399.5000	0.111169
399.0000	0.111191
398.5000	0.111132
398.0000	0.111057
397.5000	0.110798
397.0000	0.110606
396.5000	0.110207
396.0000	0.109916
395.5000	0.109401
395.0000	0.109029
394.5000	0.108427
394.0000	0.108003
393.5000	0.107368
393.0000	0.106907
392.5000	0.106245
392.0000	0.105828
391.5000	0.10522
391.0000	0.104847
390.5000	0.104278
390.0000	0.104005
389.5000	0.10359
389.0000	0.10335
388.5000	0.103073
388.0000	0.102956
387.5000	0.102858
387.0000	0.102803
386.5000	0.102889
386.0000	0.10297
385.5000	0.103244
385.0000	0.103439
384.5000	0.103842
384.0000	0.104149
383.5000	0.104649
383.0000	0.10502
382.5000	0.105693
382.0000	0.106215
381.5000	0.106956
381.0000	0.10747
380.5000	0.108343
380.0000	0.108955
379.5000	0.10985
379.0000	0.110466
378.5000	0.111444
378.0000	0.112124
377.5000	0.113118
377.0000	0.1138
376.5000	0.114877
376.0000	0.115562
375.5000	0.116609
375.0000	0.117369
374.5000	0.118455
374.0000	0.119193
373.5000	0.120347
373.0000	0.121127
372.5000	0.122371
372.0000	0.123169
371.5000	0.124432
371.0000	0.125331
370.5000	0.126676
370.0000	0.127795
369.5000	0.129412
369.0000	0.13041
368.5000	0.132019
368.0000	0.133152
367.5000	0.134847
367.0000	0.135964
366.5000	0.137744
366.0000	0.138983
365.5000	0.140826
365.0000	0.142138
364.5000	0.144139
364.0000	0.145527
363.5000	0.147642
363.0000	0.149082
362.5000	0.151256
362.0000	0.152709
361.5000	0.154895
361.0000	0.156447
360.5000	0.158657
360.0000	0.160169
359.5000	0.162401
359.0000	0.163911
358.5000	0.166162
358.0000	0.167694
357.5000	0.169963
357.0000	0.171389
356.5000	0.173526
356.0000	0.174953
355.5000	0.177116
355.0000	0.178594
354.5000	0.180758
354.0000	0.182157
353.5000	0.184312
353.0000	0.185739
352.5000	0.187809
352.0000	0.189108
351.5000	0.191065
351.0000	0.19236
350.5000	0.194293
350.0000	0.195566
349.5000	0.197483
349.0000	0.198723
348.5000	0.2005
348.0000	0.201706
347.5000	0.203524
347.0000	0.204614
346.5000	0.206289
346.0000	0.207314
345.5000	0.208976
345.0000	0.21002
344.5000	0.211542
344.0000	0.212501
343.5000	0.213988
343.0000	0.214935
342.5000	0.216333
342.0000	0.217319
341.5000	0.218649
341.0000	0.219463
340.5000	0.220791
340.0000	0.223727
339.5000	0.224932
339.0000	0.22579
338.5000	0.227008
338.0000	0.227861
337.5000	0.229091
337.0000	0.229912
336.5000	0.231234
336.0000	0.23208
335.5000	0.233443
335.0000	0.23434
334.5000	0.235597
334.0000	0.236451
333.5000	0.237784
333.0000	0.238706
332.5000	0.240153
332.0000	0.241062
331.5000	0.242442
331.0000	0.243476
330.5000	0.244982
330.0000	0.246043
329.5000	0.247654
329.0000	0.248827
328.5000	0.250596
328.0000	0.251879
327.5000	0.253937
327.0000	0.255367
326.5000	0.257612
326.0000	0.259159
325.5000	0.261659
325.0000	0.263402
324.5000	0.266113
324.0000	0.268008
323.5000	0.271065
323.0000	0.273177
322.5000	0.27653
322.0000	0.278929
321.5000	0.282615
321.0000	0.285231
320.5000	0.289474
320.0000	0.292463
319.5000	0.297143
319.0000	0.300367
318.5000	0.305548
318.0000	0.309217
317.5000	0.314971
317.0000	0.318978
316.5000	0.325369
316.0000	0.329835
315.5000	0.33692
315.0000	0.341897
314.5000	0.349652
314.0000	0.355034
313.5000	0.363537
313.0000	0.369568
312.5000	0.379045
312.0000	0.385688
311.5000	0.39612
311.0000	0.403432
310.5000	0.414875
310.0000	0.422881
309.5000	0.4354
309.0000	0.444115
308.5000	0.457894
308.0000	0.467505
307.5000	0.482481
307.0000	0.492952
306.5000	0.509377
306.0000	0.520842
305.5000	0.538661
305.0000	0.551041
304.5000	0.570389
304.0000	0.583818
303.5000	0.604706
303.0000	0.619218
302.5000	0.641744
302.0000	0.65728
301.5000	0.681487
301.0000	0.698254
300.5000	0.724313
300.0000	0.742221

##### Extended Information
[コメント情報]
試料名
コメント
測定者
所属
会社	関西大学　化学生命工学部

[データ情報]
作成日時	2014/02/28 17:18

データタイプ	等間隔データ
横軸	Wavelength [nm]
縦軸	Abs
スタート	700 nm
エンド	300 nm
データ間隔	0.5 nm
データ数	801     

[測定情報]
装置名	V-670
機種名	V-670
シリアル番号	B118261154

付属品名	USE-753
付属品シリアルNo.	B118261154
  セル長	0.1 mm

測定日時	2014/02/28 17:18

測光モード	Abs
測定範囲	700 - 300 nm
データ取込間隔	0.5 nm
UV/Vis バンド幅	1.0 nm
NIR バンド幅	8.0 nm
レスポンス	Medium
走査速度	400 nm/min
光源切換	340 nm
回折格子切換	850 nm
光源	D2/WI
フィルタ切換	ステップ
補正	ベースライン

