TITLE	
DATA TYPE	ULTRAVIOLET SPECTRUM
ORIGIN	JASCO
OWNER	
DATE	14/05/22
TIME	18:10:18
SPECTROMETER/DATA SYSTEM	
LOCALE	1041
RESOLUTION	
DELTAX	-0.5
XUNITS	NANOMETERS
YUNITS	ABSORBANCE
FIRSTX	  700.0000
LASTX	  300.0000
NPOINTS	     801
FIRSTY	     0.01554
MAXY	     0.96940
MINY	     0.01554
XYDATA
700.0000	0.0155445
699.5000	0.0155485
699.0000	0.0155454
698.5000	0.0155606
698.0000	0.0155739
697.5000	0.0155919
697.0000	0.0156029
696.5000	0.0156246
696.0000	0.0156186
695.5000	0.0156501
695.0000	0.0156614
694.5000	0.0156901
694.0000	0.0157014
693.5000	0.0157368
693.0000	0.0157496
692.5000	0.0157694
692.0000	0.0157824
691.5000	0.0157837
691.0000	0.0158028
690.5000	0.0158144
690.0000	0.0158209
689.5000	0.0158314
689.0000	0.015866
688.5000	0.0158834
688.0000	0.0158741
687.5000	0.0158693
687.0000	0.0158631
686.5000	0.0158513
686.0000	0.0158734
685.5000	0.0158965
685.0000	0.0159144
684.5000	0.0159067
684.0000	0.0159062
683.5000	0.0159089
683.0000	0.015925
682.5000	0.0159084
682.0000	0.0158983
681.5000	0.0159222
681.0000	0.0159369
680.5000	0.0159731
680.0000	0.0160209
679.5000	0.0160389
679.0000	0.0160549
678.5000	0.0160915
678.0000	0.0161168
677.5000	0.0161431
677.0000	0.016163
676.5000	0.0161995
676.0000	0.0162232
675.5000	0.0163001
675.0000	0.0163245
674.5000	0.0163821
674.0000	0.0163956
673.5000	0.0164348
673.0000	0.0164668
672.5000	0.016498
672.0000	0.016533
671.5000	0.0166007
671.0000	0.0166345
670.5000	0.0166778
670.0000	0.016712
669.5000	0.0167491
669.0000	0.0167737
668.5000	0.0168089
668.0000	0.016859
667.5000	0.0169324
667.0000	0.0169486
666.5000	0.0170355
666.0000	0.017101
665.5000	0.0171611
665.0000	0.0172217
664.5000	0.0172687
664.0000	0.0173394
663.5000	0.017405
663.0000	0.0174603
662.5000	0.0175437
662.0000	0.0176229
661.5000	0.017675
661.0000	0.0177187
660.5000	0.0178124
660.0000	0.017847
659.5000	0.0179393
659.0000	0.0179879
658.5000	0.0180725
658.0000	0.0181576
657.5000	0.0182379
657.0000	0.0183311
656.5000	0.0184363
656.0000	0.0185114
655.5000	0.0186119
655.0000	0.0187046
654.5000	0.0188174
654.0000	0.0188932
653.5000	0.0190348
653.0000	0.019112
652.5000	0.019238
652.0000	0.019318
651.5000	0.0194367
651.0000	0.0195142
650.5000	0.0196646
650.0000	0.0197524
649.5000	0.0198833
649.0000	0.0199909
648.5000	0.0201364
648.0000	0.0202521
647.5000	0.0204084
647.0000	0.0205063
646.5000	0.0206504
646.0000	0.0207663
645.5000	0.0209389
645.0000	0.0210719
644.5000	0.0212465
644.0000	0.0213348
643.5000	0.0215045
643.0000	0.0216311
642.5000	0.0217873
642.0000	0.0219138
641.5000	0.0220986
641.0000	0.0222362
640.5000	0.0224352
640.0000	0.0225831
639.5000	0.0227757
639.0000	0.0229184
638.5000	0.0231151
638.0000	0.0232329
637.5000	0.0234377
637.0000	0.0235759
636.5000	0.0238065
636.0000	0.0239608
635.5000	0.0241904
635.0000	0.0243267
634.5000	0.0245415
634.0000	0.0247016
633.5000	0.024932
633.0000	0.0250938
632.5000	0.0253316
632.0000	0.0254993
631.5000	0.0257725
631.0000	0.0259543
630.5000	0.0262177
630.0000	0.0263948
629.5000	0.0266643
629.0000	0.0268467
628.5000	0.0271197
628.0000	0.0273032
627.5000	0.0275938
627.0000	0.0277725
626.5000	0.02806
626.0000	0.0282675
625.5000	0.0285581
625.0000	0.0287494
624.5000	0.0290379
624.0000	0.029239
623.5000	0.0295441
623.0000	0.0297468
622.5000	0.0300437
622.0000	0.0302533
621.5000	0.0305828
621.0000	0.0307934
620.5000	0.0311276
620.0000	0.0313659
619.5000	0.0316936
619.0000	0.0319301
618.5000	0.0323079
618.0000	0.0325528
617.5000	0.0328903
617.0000	0.0331216
616.5000	0.0334659
616.0000	0.0337221
615.5000	0.0340831
615.0000	0.0343249
614.5000	0.034683
614.0000	0.0349292
613.5000	0.0353027
613.0000	0.0355553
612.5000	0.0359235
612.0000	0.0361559
611.5000	0.036549
611.0000	0.0368213
610.5000	0.0372279
610.0000	0.0375077
609.5000	0.0379107
609.0000	0.0381955
608.5000	0.0386267
608.0000	0.0389234
607.5000	0.0393449
607.0000	0.0396329
606.5000	0.0400745
606.0000	0.0403669
605.5000	0.0408292
605.0000	0.0411249
604.5000	0.0415847
604.0000	0.0419012
603.5000	0.042359
603.0000	0.042672
602.5000	0.043152
602.0000	0.043459
601.5000	0.0439347
601.0000	0.0442633
600.5000	0.0447575
600.0000	0.0452441
599.5000	0.0457772
599.0000	0.0461268
598.5000	0.0466535
598.0000	0.0470256
597.5000	0.0475397
597.0000	0.0479171
596.5000	0.0484696
596.0000	0.0488565
595.5000	0.0494363
595.0000	0.0498421
594.5000	0.0504452
594.0000	0.050867
593.5000	0.0514878
593.0000	0.0519017
592.5000	0.0525552
592.0000	0.0530073
591.5000	0.0536885
591.0000	0.0541761
590.5000	0.0548826
590.0000	0.055364
589.5000	0.056098
589.0000	0.0566156
588.5000	0.0573712
588.0000	0.05791
587.5000	0.0587264
587.0000	0.0592697
586.5000	0.060117
586.0000	0.060686
585.5000	0.0615494
585.0000	0.0621372
584.5000	0.0630463
584.0000	0.0636666
583.5000	0.0646531
583.0000	0.0652945
582.5000	0.066296
582.0000	0.0669894
581.5000	0.0680379
581.0000	0.0687627
580.5000	0.0698645
580.0000	0.070606
579.5000	0.0717854
579.0000	0.0725941
578.5000	0.0738099
578.0000	0.0746337
577.5000	0.0759137
577.0000	0.0767997
576.5000	0.0781571
576.0000	0.0790567
575.5000	0.0804515
575.0000	0.0813978
574.5000	0.0828839
574.0000	0.0838903
573.5000	0.0854411
573.0000	0.0864783
572.5000	0.0880869
572.0000	0.0891766
571.5000	0.0908567
571.0000	0.0919875
570.5000	0.0937151
570.0000	0.0948802
569.5000	0.0967005
569.0000	0.0979143
568.5000	0.0997909
568.0000	0.101046
567.5000	0.102966
567.0000	0.104254
566.5000	0.106227
566.0000	0.107544
565.5000	0.109575
565.0000	0.110937
564.5000	0.112969
564.0000	0.114351
563.5000	0.116437
563.0000	0.117848
562.5000	0.119982
562.0000	0.12139
561.5000	0.123516
561.0000	0.12494
560.5000	0.127087
560.0000	0.128521
559.5000	0.130669
559.0000	0.132094
558.5000	0.134251
558.0000	0.135686
557.5000	0.137805
557.0000	0.139212
556.5000	0.141281
556.0000	0.142649
555.5000	0.144691
555.0000	0.146022
554.5000	0.147995
554.0000	0.149294
553.5000	0.1512
553.0000	0.152439
552.5000	0.154248
552.0000	0.155413
551.5000	0.157135
551.0000	0.158246
550.5000	0.159859
550.0000	0.160882
549.5000	0.162348
549.0000	0.163287
548.5000	0.16466
548.0000	0.16551
547.5000	0.166726
547.0000	0.167499
546.5000	0.168584
546.0000	0.169296
545.5000	0.170261
545.0000	0.170846
544.5000	0.171668
544.0000	0.17216
543.5000	0.172863
543.0000	0.173301
542.5000	0.173887
542.0000	0.174232
541.5000	0.174681
541.0000	0.174934
540.5000	0.175253
540.0000	0.175421
539.5000	0.175614
539.0000	0.175718
538.5000	0.175823
538.0000	0.17586
537.5000	0.175845
537.0000	0.17579
536.5000	0.175647
536.0000	0.175523
535.5000	0.175255
535.0000	0.175061
534.5000	0.174715
534.0000	0.17444
533.5000	0.173974
533.0000	0.173652
532.5000	0.173111
532.0000	0.172709
531.5000	0.172043
531.0000	0.171597
530.5000	0.170842
530.0000	0.170318
529.5000	0.169491
529.0000	0.168914
528.5000	0.168014
528.0000	0.167358
527.5000	0.166365
527.0000	0.165663
526.5000	0.164563
526.0000	0.163813
525.5000	0.162651
525.0000	0.161872
524.5000	0.160635
524.0000	0.159811
523.5000	0.158513
523.0000	0.15763
522.5000	0.15626
522.0000	0.155333
521.5000	0.153961
521.0000	0.153011
520.5000	0.151576
520.0000	0.150525
519.5000	0.149039
519.0000	0.148033
518.5000	0.146483
518.0000	0.145442
517.5000	0.143903
517.0000	0.142876
516.5000	0.141346
516.0000	0.140292
515.5000	0.138706
515.0000	0.137661
514.5000	0.136138
514.0000	0.135109
513.5000	0.133565
513.0000	0.132515
512.5000	0.130989
512.0000	0.129993
511.5000	0.128485
511.0000	0.127462
510.5000	0.125931
510.0000	0.124922
509.5000	0.123438
509.0000	0.12246
508.5000	0.121009
508.0000	0.120024
507.5000	0.118558
507.0000	0.11761
506.5000	0.116191
506.0000	0.115251
505.5000	0.113848
505.0000	0.112936
504.5000	0.111602
504.0000	0.110728
503.5000	0.109381
503.0000	0.108521
502.5000	0.107219
502.0000	0.106371
501.5000	0.105106
501.0000	0.104273
500.5000	0.103024
500.0000	0.102207
499.5000	0.101007
499.0000	0.100213
498.5000	0.0990112
498.0000	0.0982112
497.5000	0.0970457
497.0000	0.0963049
496.5000	0.0951525
496.0000	0.0944057
495.5000	0.0932781
495.0000	0.0925094
494.5000	0.0914057
494.0000	0.0906649
493.5000	0.0895509
493.0000	0.0888152
492.5000	0.0877187
492.0000	0.0869952
491.5000	0.0859142
491.0000	0.0851906
490.5000	0.0840896
490.0000	0.0833574
489.5000	0.0822541
489.0000	0.0815412
488.5000	0.0804896
488.0000	0.0797643
487.5000	0.0786955
487.0000	0.0780023
486.5000	0.0769642
486.0000	0.0762476
485.5000	0.075214
485.0000	0.0745278
484.5000	0.0735093
484.0000	0.0728501
483.5000	0.071861
483.0000	0.0712182
482.5000	0.0702461
482.0000	0.0696026
481.5000	0.0686781
481.0000	0.0680598
480.5000	0.0671339
480.0000	0.0665368
479.5000	0.065679
479.0000	0.0651137
478.5000	0.0643248
478.0000	0.0637918
477.5000	0.0630248
477.0000	0.0625414
476.5000	0.061844
476.0000	0.0613848
475.5000	0.0607341
475.0000	0.0603436
474.5000	0.059765
474.0000	0.0594085
473.5000	0.0589046
473.0000	0.0585936
472.5000	0.0581626
472.0000	0.0578984
471.5000	0.0575586
471.0000	0.0573713
470.5000	0.057158
470.0000	0.0570449
469.5000	0.0569552
469.0000	0.0569323
468.5000	0.0569544
468.0000	0.0570254
467.5000	0.0572455
467.0000	0.0574631
466.5000	0.0578583
466.0000	0.0581716
465.5000	0.0587698
465.0000	0.0592564
464.5000	0.0600879
464.0000	0.0607275
463.5000	0.0618309
463.0000	0.0626729
462.5000	0.0640948
462.0000	0.0651667
461.5000	0.066942
461.0000	0.0682156
460.5000	0.0703211
460.0000	0.0718597
459.5000	0.0743814
459.0000	0.0761558
458.5000	0.0790166
458.0000	0.0810375
457.5000	0.0842249
457.0000	0.0864452
456.5000	0.0898236
456.0000	0.0921116
455.5000	0.0955713
455.0000	0.0978829
454.5000	0.101289
454.0000	0.103452
453.5000	0.106557
453.0000	0.108465
452.5000	0.111137
452.0000	0.112693
451.5000	0.114708
451.0000	0.11584
450.5000	0.117198
450.0000	0.117869
449.5000	0.118563
449.0000	0.118757
448.5000	0.118771
448.0000	0.118566
447.5000	0.118012
447.0000	0.117483
446.5000	0.116495
446.0000	0.115671
445.5000	0.114317
445.0000	0.113338
444.5000	0.111795
444.0000	0.11067
443.5000	0.108914
443.0000	0.107743
442.5000	0.10594
442.0000	0.104739
441.5000	0.102945
441.0000	0.10179
440.5000	0.100094
440.0000	0.0990008
439.5000	0.0974846
439.0000	0.0965214
438.5000	0.095161
438.0000	0.0943475
437.5000	0.0933347
437.0000	0.0927964
436.5000	0.0921156
436.0000	0.0917996
435.5000	0.0915142
435.0000	0.0914691
434.5000	0.0916384
434.0000	0.0918942
433.5000	0.0924654
433.0000	0.093027
432.5000	0.0940811
432.0000	0.0949645
431.5000	0.0964263
431.0000	0.0975377
430.5000	0.0993591
430.0000	0.100667
429.5000	0.102754
429.0000	0.1042
428.5000	0.106465
428.0000	0.107987
427.5000	0.110284
427.0000	0.111811
426.5000	0.114019
426.0000	0.115433
425.5000	0.117403
425.0000	0.118659
424.5000	0.120373
424.0000	0.121403
423.5000	0.122743
423.0000	0.123466
422.5000	0.124404
422.0000	0.124878
421.5000	0.125337
421.0000	0.125536
420.5000	0.125636
420.0000	0.125539
419.5000	0.125291
419.0000	0.124998
418.5000	0.124456
418.0000	0.123985
417.5000	0.123195
417.0000	0.122607
416.5000	0.121618
416.0000	0.120961
415.5000	0.119978
415.0000	0.119327
414.5000	0.118383
414.0000	0.117732
413.5000	0.116852
413.0000	0.116284
412.5000	0.115563
412.0000	0.115143
411.5000	0.114584
411.0000	0.114293
410.5000	0.113997
410.0000	0.113876
409.5000	0.113817
409.0000	0.113833
408.5000	0.113962
408.0000	0.114157
407.5000	0.114549
407.0000	0.11488
406.5000	0.115511
406.0000	0.115998
405.5000	0.116833
405.0000	0.117437
404.5000	0.118425
404.0000	0.119097
403.5000	0.120131
403.0000	0.120833
402.5000	0.121899
402.0000	0.122605
401.5000	0.12371
401.0000	0.124399
400.5000	0.125348
400.0000	0.125985
399.5000	0.126879
399.0000	0.127391
398.5000	0.128133
398.0000	0.128613
397.5000	0.129249
397.0000	0.129655
396.5000	0.130151
396.0000	0.130483
395.5000	0.130868
395.0000	0.13101
394.5000	0.131229
394.0000	0.131426
393.5000	0.131593
393.0000	0.131653
392.5000	0.131824
392.0000	0.131943
391.5000	0.132068
391.0000	0.132111
390.5000	0.132189
390.0000	0.132293
389.5000	0.132415
389.0000	0.132542
388.5000	0.132832
388.0000	0.133082
387.5000	0.133424
387.0000	0.133664
386.5000	0.134081
386.0000	0.134378
385.5000	0.134821
385.0000	0.13516
384.5000	0.135764
384.0000	0.136211
383.5000	0.136854
383.0000	0.137332
382.5000	0.138006
382.0000	0.138421
381.5000	0.139031
381.0000	0.139506
380.5000	0.140191
380.0000	0.140686
379.5000	0.141443
379.0000	0.141881
378.5000	0.142557
378.0000	0.143034
377.5000	0.143688
377.0000	0.144125
376.5000	0.144738
376.0000	0.14519
375.5000	0.145859
375.0000	0.146295
374.5000	0.14693
374.0000	0.147341
373.5000	0.147888
373.0000	0.148215
372.5000	0.148827
372.0000	0.149238
371.5000	0.149758
371.0000	0.150138
370.5000	0.150673
370.0000	0.151739
369.5000	0.152317
369.0000	0.152685
368.5000	0.153261
368.0000	0.153698
367.5000	0.154378
367.0000	0.154779
366.5000	0.155356
366.0000	0.155835
365.5000	0.156551
365.0000	0.157029
364.5000	0.157707
364.0000	0.158174
363.5000	0.158929
363.0000	0.159489
362.5000	0.160252
362.0000	0.160844
361.5000	0.161602
361.0000	0.162116
360.5000	0.162869
360.0000	0.163391
359.5000	0.164019
359.0000	0.164578
358.5000	0.165359
358.0000	0.165794
357.5000	0.166536
357.0000	0.167006
356.5000	0.167654
356.0000	0.168118
355.5000	0.168682
355.0000	0.169139
354.5000	0.169696
354.0000	0.170165
353.5000	0.170764
353.0000	0.171165
352.5000	0.171549
352.0000	0.171877
351.5000	0.172409
351.0000	0.172764
350.5000	0.173252
350.0000	0.173543
349.5000	0.174091
349.0000	0.174397
348.5000	0.174811
348.0000	0.175129
347.5000	0.175565
347.0000	0.175853
346.5000	0.176352
346.0000	0.176711
345.5000	0.17713
345.0000	0.177392
344.5000	0.177858
344.0000	0.178088
343.5000	0.178468
343.0000	0.178779
342.5000	0.179309
342.0000	0.179709
341.5000	0.180211
341.0000	0.180527
340.5000	0.181088
340.0000	0.182946
339.5000	0.183635
339.0000	0.184098
338.5000	0.184831
338.0000	0.185382
337.5000	0.186226
337.0000	0.186784
336.5000	0.187685
336.0000	0.18835
335.5000	0.189448
335.0000	0.190198
334.5000	0.191388
334.0000	0.192298
333.5000	0.193553
333.0000	0.194545
332.5000	0.196098
332.0000	0.197226
331.5000	0.199052
331.0000	0.200328
330.5000	0.202348
330.0000	0.203778
329.5000	0.206042
329.0000	0.207631
328.5000	0.210186
328.0000	0.212001
327.5000	0.214915
327.0000	0.217139
326.5000	0.220479
326.0000	0.222795
325.5000	0.226516
325.0000	0.229184
324.5000	0.233417
324.0000	0.23633
323.5000	0.241087
323.0000	0.244531
322.5000	0.249883
322.0000	0.253689
321.5000	0.259766
321.0000	0.263962
320.5000	0.270572
320.0000	0.275339
319.5000	0.282902
319.0000	0.288121
318.5000	0.296465
318.0000	0.302377
317.5000	0.3117
317.0000	0.318218
316.5000	0.328484
316.0000	0.335711
315.5000	0.347069
315.0000	0.354981
314.5000	0.367526
314.0000	0.376291
313.5000	0.389912
313.0000	0.399455
312.5000	0.41445
312.0000	0.424899
311.5000	0.441388
311.0000	0.452872
310.5000	0.470818
310.0000	0.483366
309.5000	0.502978
309.0000	0.516618
308.5000	0.537925
308.0000	0.552778
307.5000	0.576053
307.0000	0.592208
306.5000	0.617412
306.0000	0.63494
305.5000	0.66229
305.0000	0.681103
304.5000	0.710492
304.0000	0.730918
303.5000	0.762616
303.0000	0.78454
302.5000	0.81863
302.0000	0.842155
301.5000	0.878533
301.0000	0.903655
300.5000	0.942595
300.0000	0.969397

##### Extended Information
[コメント情報]
試料名
コメント
測定者
所属
会社	関西大学　化学生命工学部

[データ情報]
作成日時	2014/05/22 18:10

データタイプ	等間隔データ
横軸	Wavelength [nm]
縦軸	Abs
スタート	700 nm
エンド	300 nm
データ間隔	0.5 nm
データ数	801     

[測定情報]
装置名	V-670
機種名	V-670
シリアル番号	B118261154

付属品名	USE-753
付属品シリアルNo.	B118261154
  セル長	0.1 mm

測定日時	2014/05/22 18:10

測光モード	Abs
測定範囲	700 - 300 nm
データ取込間隔	0.5 nm
UV/Vis バンド幅	1.0 nm
NIR バンド幅	8.0 nm
レスポンス	Medium
走査速度	400 nm/min
光源切換	340 nm
回折格子切換	850 nm
光源	D2/WI
フィルタ切換	ステップ
補正	ベースライン

