TITLE	
DATA TYPE	ULTRAVIOLET SPECTRUM
ORIGIN	JASCO
OWNER	
DATE	14/06/04
TIME	22:15:42
SPECTROMETER/DATA SYSTEM	
LOCALE	1041
RESOLUTION	
DELTAX	-0.5
XUNITS	NANOMETERS
YUNITS	ABSORBANCE
FIRSTX	  700.0000
LASTX	  300.0000
NPOINTS	     801
FIRSTY	     0.00994
MAXY	     0.66322
MINY	     0.00917
XYDATA
700.0000	0.00993564
699.5000	0.00992509
699.0000	0.00990961
698.5000	0.00991573
698.0000	0.00992573
697.5000	0.00993285
697.0000	0.00993767
696.5000	0.00992962
696.0000	0.00991704
695.5000	0.0099318
695.0000	0.00993062
694.5000	0.00992283
694.0000	0.00991878
693.5000	0.00991595
693.0000	0.0099175
692.5000	0.0098992
692.0000	0.0098901
691.5000	0.00988389
691.0000	0.00985824
690.5000	0.00981577
690.0000	0.00981235
689.5000	0.00978866
689.0000	0.00976738
688.5000	0.00973837
688.0000	0.0097286
687.5000	0.00971591
687.0000	0.0096974
686.5000	0.00965858
686.0000	0.00963423
685.5000	0.00961048
685.0000	0.00960487
684.5000	0.0095724
684.0000	0.00955958
683.5000	0.00954401
683.0000	0.0095197
682.5000	0.0095027
682.0000	0.00949313
681.5000	0.00944955
681.0000	0.00940542
680.5000	0.00940655
680.0000	0.00940009
679.5000	0.0093891
679.0000	0.00938188
678.5000	0.00934504
678.0000	0.00935002
677.5000	0.00936541
677.0000	0.00936262
676.5000	0.0093621
676.0000	0.00934404
675.5000	0.00933218
675.0000	0.0093231
674.5000	0.00933402
674.0000	0.00930759
673.5000	0.00930085
673.0000	0.00929181
672.5000	0.0092667
672.0000	0.00926921
671.5000	0.00924624
671.0000	0.00922417
670.5000	0.00919922
670.0000	0.00920301
669.5000	0.00922001
669.0000	0.00920423
668.5000	0.00918013
668.0000	0.00916724
667.5000	0.00918134
667.0000	0.00917703
666.5000	0.00918603
666.0000	0.00919021
665.5000	0.00918714
665.0000	0.00920085
664.5000	0.00918549
664.0000	0.00918099
663.5000	0.0091782
663.0000	0.00917735
662.5000	0.0092047
662.0000	0.00920889
661.5000	0.00921348
661.0000	0.00920157
660.5000	0.00923543
660.0000	0.00922671
659.5000	0.00920956
659.0000	0.00922776
658.5000	0.0092159
658.0000	0.00923851
657.5000	0.00927724
657.0000	0.00927272
656.5000	0.00924831
656.0000	0.00925202
655.5000	0.00930021
655.0000	0.00930976
654.5000	0.00932051
654.0000	0.00932677
653.5000	0.00936804
653.0000	0.00939316
652.5000	0.00941422
652.0000	0.00942704
651.5000	0.00943982
651.0000	0.00945678
650.5000	0.00951195
650.0000	0.00952925
649.5000	0.0095817
649.0000	0.00960385
648.5000	0.0096203
648.0000	0.00965133
647.5000	0.00966484
647.0000	0.00966713
646.5000	0.00970167
646.0000	0.0097236
645.5000	0.00977906
645.0000	0.0098028
644.5000	0.00981342
644.0000	0.00985563
643.5000	0.0098893
643.0000	0.00989847
642.5000	0.00995186
642.0000	0.00997635
641.5000	0.0100349
641.0000	0.0100783
640.5000	0.0101556
640.0000	0.0101826
639.5000	0.0102255
639.0000	0.0102455
638.5000	0.0103124
638.0000	0.0103666
637.5000	0.0103866
637.0000	0.010441
636.5000	0.0105
636.0000	0.0105169
635.5000	0.0105855
635.0000	0.0106188
634.5000	0.0106736
634.0000	0.0107167
633.5000	0.0108086
633.0000	0.0108543
632.5000	0.0109285
632.0000	0.010973
631.5000	0.0110438
631.0000	0.0111113
630.5000	0.0111767
630.0000	0.0112334
629.5000	0.0113288
629.0000	0.0113996
628.5000	0.0114846
628.0000	0.0115297
627.5000	0.0115979
627.0000	0.0116731
626.5000	0.0117707
626.0000	0.01184
625.5000	0.011936
625.0000	0.0120059
624.5000	0.0121188
624.0000	0.0121725
623.5000	0.0122495
623.0000	0.0123151
622.5000	0.0124336
622.0000	0.0125017
621.5000	0.0126201
621.0000	0.012713
620.5000	0.0128138
620.0000	0.0129051
619.5000	0.0130187
619.0000	0.0131177
618.5000	0.0132574
618.0000	0.0133284
617.5000	0.0134644
617.0000	0.0135594
616.5000	0.0136864
616.0000	0.0137669
615.5000	0.0139039
615.0000	0.0139953
614.5000	0.0141235
614.0000	0.0142311
613.5000	0.0143493
613.0000	0.0144428
612.5000	0.0145458
612.0000	0.0146356
611.5000	0.0147733
611.0000	0.0148848
610.5000	0.0150553
610.0000	0.0151615
609.5000	0.0153277
609.0000	0.0154288
608.5000	0.0156062
608.0000	0.0157371
607.5000	0.0158975
607.0000	0.0160253
606.5000	0.0162265
606.0000	0.0163625
605.5000	0.0165365
605.0000	0.0166689
604.5000	0.0168779
604.0000	0.0170153
603.5000	0.0172382
603.0000	0.0173824
602.5000	0.0175958
602.0000	0.0177245
601.5000	0.017944
601.0000	0.018098
600.5000	0.0183207
600.0000	0.0184148
599.5000	0.0186704
599.0000	0.0188376
598.5000	0.0190763
598.0000	0.0192344
597.5000	0.0194979
597.0000	0.0196809
596.5000	0.0199514
596.0000	0.0201393
595.5000	0.0204306
595.0000	0.0206222
594.5000	0.020896
594.0000	0.0211091
593.5000	0.0214289
593.0000	0.021641
592.5000	0.0219789
592.0000	0.0222158
591.5000	0.022556
591.0000	0.022788
590.5000	0.023124
590.0000	0.0233587
589.5000	0.0236998
589.0000	0.023956
588.5000	0.0243361
588.0000	0.0246028
587.5000	0.0249797
587.0000	0.025255
586.5000	0.0256422
586.0000	0.0259054
585.5000	0.0263353
585.0000	0.02664
584.5000	0.0271011
584.0000	0.0273966
583.5000	0.0278609
583.0000	0.0281776
582.5000	0.0286582
582.0000	0.0289822
581.5000	0.0294951
581.0000	0.0298641
580.5000	0.0303834
580.0000	0.0307553
579.5000	0.0313066
579.0000	0.0316703
578.5000	0.0322545
578.0000	0.0326281
577.5000	0.0332366
577.0000	0.0336861
576.5000	0.0343212
576.0000	0.0347484
575.5000	0.0354063
575.0000	0.0358518
574.5000	0.0365277
574.0000	0.0370215
573.5000	0.0377464
573.0000	0.03824
572.5000	0.0390012
572.0000	0.039514
571.5000	0.0402971
571.0000	0.0408522
570.5000	0.0416476
570.0000	0.0422139
569.5000	0.043068
569.0000	0.0436402
568.5000	0.0445143
568.0000	0.0451143
567.5000	0.0459801
567.0000	0.0465748
566.5000	0.0474983
566.0000	0.0481088
565.5000	0.0490656
565.0000	0.0497142
564.5000	0.0506606
564.0000	0.0513131
563.5000	0.052301
563.0000	0.0529773
562.5000	0.0539657
562.0000	0.0546423
561.5000	0.055657
561.0000	0.0563797
560.5000	0.0574329
560.0000	0.0581243
559.5000	0.0591771
559.0000	0.0598732
558.5000	0.0609286
558.0000	0.0616303
557.5000	0.0626713
557.0000	0.0633753
556.5000	0.0644347
556.0000	0.0651444
555.5000	0.0661797
555.0000	0.0668544
554.5000	0.0678491
554.0000	0.0685198
553.5000	0.0694935
553.0000	0.0701679
552.5000	0.071143
552.0000	0.0717831
551.5000	0.0727115
551.0000	0.0733285
550.5000	0.0742312
550.0000	0.0748244
549.5000	0.0756893
549.0000	0.0762411
548.5000	0.0770787
548.0000	0.0776054
547.5000	0.0783798
547.0000	0.0789034
546.5000	0.0796274
546.0000	0.0800776
545.5000	0.0807547
545.0000	0.0812062
544.5000	0.081847
544.0000	0.0822312
543.5000	0.0827814
543.0000	0.0831348
542.5000	0.0836573
542.0000	0.0839849
541.5000	0.0844597
541.0000	0.084742
540.5000	0.0851377
540.0000	0.0853755
539.5000	0.0857101
539.0000	0.0859232
538.5000	0.0861901
538.0000	0.086347
537.5000	0.0865847
537.0000	0.086726
536.5000	0.0868915
536.0000	0.0869866
535.5000	0.0870985
535.0000	0.0871606
534.5000	0.0872228
534.0000	0.0872461
533.5000	0.087253
533.0000	0.0872524
532.5000	0.0871911
532.0000	0.0871289
531.5000	0.087017
531.0000	0.0869263
530.5000	0.0867518
530.0000	0.0866198
529.5000	0.0863882
529.0000	0.0862035
528.5000	0.0858888
528.0000	0.0856686
527.5000	0.0852928
527.0000	0.0850127
526.5000	0.0845833
526.0000	0.0842809
525.5000	0.0838143
525.0000	0.0834677
524.5000	0.0829237
524.0000	0.0825567
523.5000	0.0819603
523.0000	0.0815485
522.5000	0.0809447
522.0000	0.0805165
521.5000	0.0798511
521.0000	0.0793962
520.5000	0.0787252
520.0000	0.0782441
519.5000	0.0775489
519.0000	0.0770486
518.5000	0.0763199
518.0000	0.0758499
517.5000	0.0751024
517.0000	0.0746144
516.5000	0.0738459
516.0000	0.073358
515.5000	0.0726273
515.0000	0.0720913
514.5000	0.0713165
514.0000	0.0708143
513.5000	0.0700453
513.0000	0.0694935
512.5000	0.0687259
512.0000	0.0681989
511.5000	0.067428
511.0000	0.0669289
510.5000	0.066162
510.0000	0.0656646
509.5000	0.0649096
509.0000	0.0644088
508.5000	0.0636878
508.0000	0.063201
507.5000	0.0625011
507.0000	0.0620241
506.5000	0.0613471
506.0000	0.0608809
505.5000	0.0602286
505.0000	0.0598044
504.5000	0.0591255
504.0000	0.0586989
503.5000	0.0580652
503.0000	0.0576497
502.5000	0.0570426
502.0000	0.0566279
501.5000	0.0560317
501.0000	0.0555976
500.5000	0.0550375
500.0000	0.0546363
499.5000	0.0540578
499.0000	0.0536669
498.5000	0.0530937
498.0000	0.0527257
497.5000	0.0521537
497.0000	0.0517921
496.5000	0.0512566
496.0000	0.0509093
495.5000	0.0503862
495.0000	0.0500362
494.5000	0.049535
494.0000	0.0491859
493.5000	0.0486832
493.0000	0.0483177
492.5000	0.0478156
492.0000	0.047493
491.5000	0.0470354
491.0000	0.0467051
490.5000	0.0462204
490.0000	0.0459151
489.5000	0.0454475
489.0000	0.0451142
488.5000	0.0446495
488.0000	0.0443426
487.5000	0.0439189
487.0000	0.0436163
486.5000	0.0431984
486.0000	0.0429165
485.5000	0.0424985
485.0000	0.0422209
484.5000	0.0418524
484.0000	0.0416081
483.5000	0.0412029
483.0000	0.0409681
482.5000	0.0406555
482.0000	0.0404709
481.5000	0.0401535
481.0000	0.0399626
480.5000	0.0397078
480.0000	0.0395448
479.5000	0.0393181
479.0000	0.039183
478.5000	0.0390135
478.0000	0.0389111
477.5000	0.0388054
477.0000	0.0387782
476.5000	0.0387129
476.0000	0.0386888
475.5000	0.0387021
475.0000	0.0387636
474.5000	0.0388597
474.0000	0.0389556
473.5000	0.0391347
473.0000	0.0393014
472.5000	0.0396148
472.0000	0.0398275
471.5000	0.0402008
471.0000	0.0405145
470.5000	0.0410611
470.0000	0.0414881
469.5000	0.0421874
469.0000	0.0427162
468.5000	0.0436118
468.0000	0.0442654
467.5000	0.0454021
467.0000	0.0462287
466.5000	0.0475806
466.0000	0.0485844
465.5000	0.050257
465.0000	0.0514832
464.5000	0.0534623
464.0000	0.0548597
463.5000	0.0571728
463.0000	0.0588458
462.5000	0.0615273
462.0000	0.0634437
461.5000	0.066513
461.0000	0.0686909
460.5000	0.0721677
460.0000	0.0745756
459.5000	0.0784131
459.0000	0.0810928
458.5000	0.0852345
458.0000	0.0880905
457.5000	0.0924725
457.0000	0.0954221
456.5000	0.0998685
456.0000	0.102828
455.5000	0.107194
455.0000	0.110052
454.5000	0.11413
454.0000	0.116699
453.5000	0.120332
453.0000	0.122535
452.5000	0.125478
452.0000	0.127135
451.5000	0.129254
451.0000	0.130399
450.5000	0.131682
450.0000	0.13225
449.5000	0.132652
449.0000	0.132647
448.5000	0.132247
448.0000	0.131745
447.5000	0.130664
447.0000	0.129719
446.5000	0.128075
446.0000	0.126831
445.5000	0.124795
445.0000	0.123318
444.5000	0.120991
444.0000	0.119337
443.5000	0.116805
443.0000	0.115099
442.5000	0.112569
442.0000	0.11084
441.5000	0.108294
441.0000	0.106622
440.5000	0.104233
440.0000	0.102683
439.5000	0.100503
439.0000	0.0991551
438.5000	0.097299
438.0000	0.0961733
437.5000	0.0947333
437.0000	0.0938941
436.5000	0.0928929
436.0000	0.0923497
435.5000	0.0918421
435.0000	0.0916762
434.5000	0.0917289
434.0000	0.0919061
433.5000	0.0924586
433.0000	0.0930008
432.5000	0.09405
432.0000	0.0949052
431.5000	0.0963491
431.0000	0.0974606
430.5000	0.0993115
430.0000	0.100619
429.5000	0.10271
429.0000	0.104144
428.5000	0.106317
428.0000	0.107753
427.5000	0.109879
427.0000	0.11123
426.5000	0.113126
426.0000	0.114292
425.5000	0.115879
425.0000	0.116784
424.5000	0.117925
424.0000	0.118515
423.5000	0.119123
423.0000	0.119359
422.5000	0.119406
422.0000	0.119275
421.5000	0.118783
421.0000	0.118264
420.5000	0.117273
420.0000	0.116401
419.5000	0.114944
419.0000	0.113855
418.5000	0.112051
418.0000	0.110759
417.5000	0.108699
417.0000	0.107246
416.5000	0.10501
416.0000	0.103481
415.5000	0.101241
415.0000	0.0997237
414.5000	0.0974557
414.0000	0.0960149
413.5000	0.0939206
413.0000	0.0926145
412.5000	0.0907347
412.0000	0.0895214
411.5000	0.0878773
411.0000	0.0868825
410.5000	0.0855642
410.0000	0.0847735
409.5000	0.0837144
409.0000	0.0831059
408.5000	0.0823639
408.0000	0.0819871
407.5000	0.0815424
407.0000	0.0813339
406.5000	0.0811157
406.0000	0.0810922
405.5000	0.0811225
405.0000	0.0812103
404.5000	0.0813814
404.0000	0.0815397
403.5000	0.0818142
403.0000	0.081992
402.5000	0.0823107
402.0000	0.0825177
401.5000	0.0827594
401.0000	0.0829021
400.5000	0.0830973
400.0000	0.0831381
399.5000	0.0831406
399.0000	0.0830958
398.5000	0.0829926
398.0000	0.0828269
397.5000	0.0825096
397.0000	0.0822841
396.5000	0.0818935
396.0000	0.0815463
395.5000	0.080988
395.0000	0.0805807
394.5000	0.0799315
394.0000	0.0794701
393.5000	0.0788014
393.0000	0.0783019
392.5000	0.0776143
392.0000	0.0771543
391.5000	0.0765373
391.0000	0.0761275
390.5000	0.0755424
390.0000	0.075183
389.5000	0.0747152
389.0000	0.0744285
388.5000	0.0741414
388.0000	0.0739412
387.5000	0.0737822
387.0000	0.0737414
386.5000	0.0737671
386.0000	0.0738211
385.5000	0.0739355
385.0000	0.074027
384.5000	0.0742605
384.0000	0.0744796
383.5000	0.074855
383.0000	0.0751727
382.5000	0.0756334
382.0000	0.0759815
381.5000	0.0765878
381.0000	0.0769493
380.5000	0.0775772
380.0000	0.0780064
379.5000	0.0786472
379.0000	0.0790846
378.5000	0.0797996
378.0000	0.0803019
377.5000	0.081023
377.0000	0.0814748
376.5000	0.0822026
376.0000	0.08272
375.5000	0.0834446
375.0000	0.0839275
374.5000	0.084655
374.0000	0.0851837
373.5000	0.085977
373.0000	0.0865211
372.5000	0.0873765
372.0000	0.0879439
371.5000	0.0888253
371.0000	0.0894274
370.5000	0.0904139
370.0000	0.0909959
369.5000	0.0920276
369.0000	0.0928609
368.5000	0.0940208
368.0000	0.0948629
367.5000	0.0961417
367.0000	0.096992
366.5000	0.0982821
366.0000	0.0991756
365.5000	0.100564
365.0000	0.101494
364.5000	0.102983
364.0000	0.104017
363.5000	0.105624
363.0000	0.106753
362.5000	0.108323
362.0000	0.109457
361.5000	0.111161
361.0000	0.112349
360.5000	0.114054
360.0000	0.115236
359.5000	0.117005
359.0000	0.118199
358.5000	0.120043
358.0000	0.121245
357.5000	0.123123
357.0000	0.12431
356.5000	0.126019
356.0000	0.12722
355.5000	0.128956
355.0000	0.130156
354.5000	0.131801
354.0000	0.132973
353.5000	0.134675
353.0000	0.135782
352.5000	0.137556
352.0000	0.138624
351.5000	0.140259
351.0000	0.141301
350.5000	0.14295
350.0000	0.144017
349.5000	0.145583
349.0000	0.14664
348.5000	0.148218
348.0000	0.149303
347.5000	0.150857
347.0000	0.151822
346.5000	0.153245
346.0000	0.154203
345.5000	0.155546
345.0000	0.156535
344.5000	0.157963
344.0000	0.158783
343.5000	0.16014
343.0000	0.160969
342.5000	0.162173
342.0000	0.162913
341.5000	0.16401
341.0000	0.164803
340.5000	0.16605
340.0000	0.168654
339.5000	0.169711
339.0000	0.170487
338.5000	0.171557
338.0000	0.172247
337.5000	0.173201
337.0000	0.173858
336.5000	0.174834
336.0000	0.175577
335.5000	0.176616
335.0000	0.177296
334.5000	0.17844
334.0000	0.179126
333.5000	0.180271
333.0000	0.180991
332.5000	0.182042
332.0000	0.18281
331.5000	0.183952
331.0000	0.184767
330.5000	0.186042
330.0000	0.186912
329.5000	0.188199
329.0000	0.189143
328.5000	0.190637
328.0000	0.191689
327.5000	0.193359
327.0000	0.194452
326.5000	0.196282
326.0000	0.197526
325.5000	0.199498
325.0000	0.200977
324.5000	0.203232
324.0000	0.204788
323.5000	0.207278
323.0000	0.209115
322.5000	0.211955
322.0000	0.21399
321.5000	0.217329
321.0000	0.219633
320.5000	0.223355
320.0000	0.226035
319.5000	0.23031
319.0000	0.233286
318.5000	0.238107
318.0000	0.241466
317.5000	0.246839
317.0000	0.250618
316.5000	0.256609
316.0000	0.260845
315.5000	0.267478
315.0000	0.272134
314.5000	0.279591
314.0000	0.284798
313.5000	0.292916
313.0000	0.298694
312.5000	0.307736
312.0000	0.314114
311.5000	0.324205
311.0000	0.331219
310.5000	0.342332
310.0000	0.350017
309.5000	0.36216
309.0000	0.370651
308.5000	0.384063
308.0000	0.393309
307.5000	0.407931
307.0000	0.418152
306.5000	0.434079
306.0000	0.445221
305.5000	0.462593
305.0000	0.474648
304.5000	0.493596
304.0000	0.506717
303.5000	0.527449
303.0000	0.541679
302.5000	0.563856
302.0000	0.579234
301.5000	0.603263
301.0000	0.619808
300.5000	0.64546
300.0000	0.663221

##### Extended Information
[コメント情報]
試料名
コメント
測定者
所属
会社	関西大学　化学生命工学部

[データ情報]
作成日時	2014/06/04 22:15

データタイプ	等間隔データ
横軸	Wavelength [nm]
縦軸	Abs
スタート	700 nm
エンド	300 nm
データ間隔	0.5 nm
データ数	801     

[測定情報]
装置名	V-670
機種名	V-670
シリアル番号	B118261154

付属品名	USE-753
付属品シリアルNo.	B118261154
  セル長	0.1 mm

測定日時	2014/06/04 22:15

測光モード	Abs
測定範囲	700 - 300 nm
データ取込間隔	0.5 nm
UV/Vis バンド幅	1.0 nm
NIR バンド幅	8.0 nm
レスポンス	Medium
走査速度	400 nm/min
光源切換	340 nm
回折格子切換	850 nm
光源	D2/WI
フィルタ切換	ステップ
補正	ベースライン

