TITLE	
DATA TYPE	ULTRAVIOLET SPECTRUM
ORIGIN	JASCO
OWNER	
DATE	14/06/02
TIME	22:13:56
SPECTROMETER/DATA SYSTEM	
LOCALE	1041
RESOLUTION	
DELTAX	-0.5
XUNITS	NANOMETERS
YUNITS	ABSORBANCE
FIRSTX	  700.0000
LASTX	  300.0000
NPOINTS	     801
FIRSTY	     0.00476
MAXY	     0.45377
MINY	     0.00346
XYDATA
700.0000	0.00476465
699.5000	0.00472086
699.0000	0.00472803
698.5000	0.00471389
698.0000	0.0047201
697.5000	0.00471349
697.0000	0.00472551
696.5000	0.00473208
696.0000	0.00471579
695.5000	0.00469233
695.0000	0.00467711
694.5000	0.00461523
694.0000	0.00462693
693.5000	0.00460439
693.0000	0.00460099
692.5000	0.00456192
692.0000	0.00454506
691.5000	0.00450152
691.0000	0.00450344
690.5000	0.00445026
690.0000	0.00443539
689.5000	0.00440811
689.0000	0.00439763
688.5000	0.00437832
688.0000	0.00438788
687.5000	0.00435154
687.0000	0.00434676
686.5000	0.00432307
686.0000	0.00434177
685.5000	0.00431356
685.0000	0.00429323
684.5000	0.0042733
684.0000	0.00427977
683.5000	0.00424887
683.0000	0.00422822
682.5000	0.00423044
682.0000	0.00421501
681.5000	0.00418729
681.0000	0.0041775
680.5000	0.00417797
680.0000	0.00416434
679.5000	0.00410293
679.0000	0.00408688
678.5000	0.00407277
678.0000	0.00404306
677.5000	0.0040256
677.0000	0.00401329
676.5000	0.00400794
676.0000	0.00398086
675.5000	0.0039667
675.0000	0.00395332
674.5000	0.00392857
674.0000	0.00389645
673.5000	0.00388204
673.0000	0.00389154
672.5000	0.00388416
672.0000	0.00383763
671.5000	0.00384079
671.0000	0.00382275
670.5000	0.00380047
670.0000	0.00378642
669.5000	0.00375407
669.0000	0.00374588
668.5000	0.0037424
668.0000	0.00372963
667.5000	0.00372602
667.0000	0.00372861
666.5000	0.00370937
666.0000	0.00369383
665.5000	0.0037098
665.0000	0.00371574
664.5000	0.0037001
664.0000	0.00368379
663.5000	0.00368993
663.0000	0.00368909
662.5000	0.00366606
662.0000	0.00365089
661.5000	0.00364545
661.0000	0.00363753
660.5000	0.00362739
660.0000	0.00361281
659.5000	0.0036144
659.0000	0.0036105
658.5000	0.00359041
658.0000	0.00357873
657.5000	0.00355474
657.0000	0.00354263
656.5000	0.00353055
656.0000	0.00353293
655.5000	0.00354512
655.0000	0.00354402
654.5000	0.00353509
654.0000	0.00352076
653.5000	0.00352021
653.0000	0.00351277
652.5000	0.00348078
652.0000	0.00347905
651.5000	0.00348742
651.0000	0.00350139
650.5000	0.00350359
650.0000	0.00349337
649.5000	0.00350482
649.0000	0.00348594
648.5000	0.00346317
648.0000	0.00345999
647.5000	0.00346082
647.0000	0.0034578
646.5000	0.00346649
646.0000	0.00346653
645.5000	0.00347997
645.0000	0.00348102
644.5000	0.00347621
644.0000	0.00349153
643.5000	0.0035033
643.0000	0.00350742
642.5000	0.00352742
642.0000	0.00353737
641.5000	0.00353545
641.0000	0.00357068
640.5000	0.00356872
640.0000	0.00358387
639.5000	0.00359053
639.0000	0.00360427
638.5000	0.00361002
638.0000	0.00361974
637.5000	0.003635
637.0000	0.00363328
636.5000	0.00365308
636.0000	0.00364747
635.5000	0.00366474
635.0000	0.00368193
634.5000	0.00368318
634.0000	0.00368067
633.5000	0.00368371
633.0000	0.00369442
632.5000	0.00370055
632.0000	0.00371467
631.5000	0.00371521
631.0000	0.00370145
630.5000	0.00370595
630.0000	0.00370865
629.5000	0.00371199
629.0000	0.00372156
628.5000	0.00372386
628.0000	0.00373513
627.5000	0.00376551
627.0000	0.00377068
626.5000	0.0037968
626.0000	0.00381823
625.5000	0.00384015
625.0000	0.00384283
624.5000	0.00388054
624.0000	0.00390054
623.5000	0.0039481
623.0000	0.00396107
622.5000	0.0039783
622.0000	0.00399991
621.5000	0.00402393
621.0000	0.00403471
620.5000	0.00405536
620.0000	0.00407378
619.5000	0.00410927
619.0000	0.00413244
618.5000	0.00419228
618.0000	0.004216
617.5000	0.00424511
617.0000	0.00426277
616.5000	0.00429682
616.0000	0.00431483
615.5000	0.00435873
615.0000	0.00436757
614.5000	0.00441122
614.0000	0.00444453
613.5000	0.00447629
613.0000	0.00449345
612.5000	0.00453728
612.0000	0.00457556
611.5000	0.00460372
611.0000	0.00463534
610.5000	0.00470106
610.0000	0.00475981
609.5000	0.00481299
609.0000	0.00484009
608.5000	0.00491601
608.0000	0.00497125
607.5000	0.00504145
607.0000	0.00509705
606.5000	0.00516281
606.0000	0.00521359
605.5000	0.00528068
605.0000	0.00534176
604.5000	0.00539514
604.0000	0.00545065
603.5000	0.00552713
603.0000	0.00557363
602.5000	0.0056407
602.0000	0.00569364
601.5000	0.00575915
601.0000	0.00578046
600.5000	0.00582295
600.0000	0.0059364
599.5000	0.00602422
599.0000	0.00607136
598.5000	0.00616924
598.0000	0.00622312
597.5000	0.00629432
597.0000	0.00635033
596.5000	0.00643877
596.0000	0.00650415
595.5000	0.00658108
595.0000	0.00663673
594.5000	0.00674074
594.0000	0.00680805
593.5000	0.00688784
593.0000	0.0069691
592.5000	0.00706608
592.0000	0.00713802
591.5000	0.00722838
591.0000	0.00730303
590.5000	0.00742382
590.0000	0.00751963
589.5000	0.0076232
589.0000	0.00771184
588.5000	0.00782259
588.0000	0.00792414
587.5000	0.00805463
587.0000	0.00814272
586.5000	0.00827425
586.0000	0.00836989
585.5000	0.00848956
585.0000	0.00858711
584.5000	0.0087001
584.0000	0.00879447
583.5000	0.0089304
583.0000	0.00902975
582.5000	0.00916961
582.0000	0.00926029
581.5000	0.00941518
581.0000	0.00951297
580.5000	0.00965917
580.0000	0.00976651
579.5000	0.0099209
579.0000	0.010048
578.5000	0.0101999
578.0000	0.0103318
577.5000	0.0105125
577.0000	0.010627
576.5000	0.0108244
576.0000	0.0109415
575.5000	0.011141
575.0000	0.0112673
574.5000	0.0114634
574.0000	0.0116047
573.5000	0.0118044
573.0000	0.0119695
572.5000	0.0121717
572.0000	0.0123173
571.5000	0.0125197
571.0000	0.0126789
570.5000	0.012887
570.0000	0.0130272
569.5000	0.0132406
569.0000	0.0133865
568.5000	0.0136125
568.0000	0.0137672
567.5000	0.0139865
567.0000	0.0141613
566.5000	0.0143916
566.0000	0.0145477
565.5000	0.0147863
565.0000	0.0149558
564.5000	0.0151891
564.0000	0.0153777
563.5000	0.0156618
563.0000	0.0158596
562.5000	0.0161155
562.0000	0.0162874
561.5000	0.0165502
561.0000	0.0167407
560.5000	0.0169778
560.0000	0.0171541
559.5000	0.0174502
559.0000	0.0176323
558.5000	0.0178971
558.0000	0.0180991
557.5000	0.0183292
557.0000	0.018516
556.5000	0.0187633
556.0000	0.0189648
555.5000	0.0192572
555.0000	0.0194419
554.5000	0.0197008
554.0000	0.0198813
553.5000	0.0201511
553.0000	0.0203128
552.5000	0.0205622
552.0000	0.020746
551.5000	0.0209825
551.0000	0.0211576
550.5000	0.0213835
550.0000	0.0215508
549.5000	0.0217763
549.0000	0.0219215
548.5000	0.0221352
548.0000	0.0222994
547.5000	0.0225476
547.0000	0.0226823
546.5000	0.0228787
546.0000	0.0230028
545.5000	0.0231905
545.0000	0.0233217
544.5000	0.0235025
544.0000	0.0236221
543.5000	0.0237785
543.0000	0.0238842
542.5000	0.0240112
542.0000	0.0240968
541.5000	0.0241902
541.0000	0.0242433
540.5000	0.0243373
540.0000	0.0243909
539.5000	0.0244797
539.0000	0.0245131
538.5000	0.024545
538.0000	0.0245778
537.5000	0.0245963
537.0000	0.0245976
536.5000	0.0245772
536.0000	0.0245643
535.5000	0.0245557
535.0000	0.0245219
534.5000	0.0244797
534.0000	0.0244407
533.5000	0.0243984
533.0000	0.02436
532.5000	0.0242783
532.0000	0.0242081
531.5000	0.0241111
531.0000	0.0240421
530.5000	0.0239361
530.0000	0.0238569
529.5000	0.0237424
529.0000	0.0236515
528.5000	0.0235142
528.0000	0.0234002
527.5000	0.0232396
527.0000	0.0231296
526.5000	0.0229327
526.0000	0.0228149
525.5000	0.0226553
525.0000	0.0225259
524.5000	0.0223419
524.0000	0.0222136
523.5000	0.0220426
523.0000	0.0219092
522.5000	0.0216975
522.0000	0.0215623
521.5000	0.021352
521.0000	0.0212262
520.5000	0.0210265
520.0000	0.0209468
519.5000	0.0207468
519.0000	0.0206187
518.5000	0.0204106
518.0000	0.0202795
517.5000	0.0200694
517.0000	0.0198934
516.5000	0.0196631
516.0000	0.0195153
515.5000	0.0193413
515.0000	0.0191929
514.5000	0.0189753
514.0000	0.0188339
513.5000	0.0186502
513.0000	0.0184967
512.5000	0.0182814
512.0000	0.0181373
511.5000	0.017926
511.0000	0.0177782
510.5000	0.0175939
510.0000	0.0174447
509.5000	0.0172385
509.0000	0.0170913
508.5000	0.0169004
508.0000	0.0167818
507.5000	0.0165981
507.0000	0.0164642
506.5000	0.0163068
506.0000	0.0161826
505.5000	0.0160225
505.0000	0.015904
504.5000	0.0157181
504.0000	0.0156111
503.5000	0.0154654
503.0000	0.0153425
502.5000	0.0151925
502.0000	0.0150659
501.5000	0.0149297
501.0000	0.0148113
500.5000	0.0146314
500.0000	0.0145026
499.5000	0.0143402
499.0000	0.014228
498.5000	0.0140557
498.0000	0.0139605
497.5000	0.0138109
497.0000	0.0136973
496.5000	0.0135545
496.0000	0.0134393
495.5000	0.0133146
495.0000	0.0132196
494.5000	0.0130758
494.0000	0.0129873
493.5000	0.0128633
493.0000	0.0127609
492.5000	0.0126392
492.0000	0.0125814
491.5000	0.0124791
491.0000	0.012384
490.5000	0.0122936
490.0000	0.012232
489.5000	0.0121406
489.0000	0.0120846
488.5000	0.0119938
488.0000	0.0119491
487.5000	0.0118912
487.0000	0.0118508
486.5000	0.011797
486.0000	0.0117598
485.5000	0.011709
485.0000	0.0116836
484.5000	0.0116696
484.0000	0.0116399
483.5000	0.0115915
483.0000	0.0115903
482.5000	0.0115883
482.0000	0.0115904
481.5000	0.0115927
481.0000	0.0116122
480.5000	0.0116544
480.0000	0.0117069
479.5000	0.0117788
479.0000	0.0118452
478.5000	0.0119388
478.0000	0.0120166
477.5000	0.0121601
477.0000	0.012294
476.5000	0.0124704
476.0000	0.012586
475.5000	0.0128336
475.0000	0.013008
474.5000	0.0132947
474.0000	0.0135276
473.5000	0.0138937
473.0000	0.0141678
472.5000	0.0146054
472.0000	0.0149446
471.5000	0.0154962
471.0000	0.0159225
470.5000	0.0166187
470.0000	0.0171311
469.5000	0.0179903
469.0000	0.0186211
468.5000	0.0196791
468.0000	0.020444
467.5000	0.0216785
467.0000	0.0226051
466.5000	0.0241081
466.0000	0.0252139
465.5000	0.0270107
465.0000	0.0283271
464.5000	0.0304966
464.0000	0.0320504
463.5000	0.0345662
463.0000	0.036394
462.5000	0.03936
462.0000	0.0415013
461.5000	0.0449476
461.0000	0.0474239
460.5000	0.0514108
460.0000	0.0541897
459.5000	0.0586698
459.0000	0.0618211
458.5000	0.0667499
458.0000	0.0701521
457.5000	0.075476
457.0000	0.0791039
456.5000	0.0846644
456.0000	0.0883708
455.5000	0.0938846
455.0000	0.0974943
454.5000	0.102749
454.0000	0.106074
453.5000	0.110821
453.0000	0.113701
452.5000	0.117623
452.0000	0.119926
451.5000	0.122873
451.0000	0.124464
450.5000	0.126319
450.0000	0.127158
449.5000	0.127911
449.0000	0.128071
448.5000	0.127828
448.0000	0.127351
447.5000	0.12622
447.0000	0.125233
446.5000	0.123398
446.0000	0.121971
445.5000	0.119589
445.0000	0.117847
444.5000	0.11507
444.0000	0.113111
443.5000	0.110097
443.0000	0.108047
442.5000	0.104913
442.0000	0.10282
441.5000	0.0997062
441.0000	0.0976525
440.5000	0.0946241
440.0000	0.0926808
439.5000	0.0899315
439.0000	0.0881924
438.5000	0.0857506
438.0000	0.0842912
437.5000	0.0823325
437.0000	0.0811614
436.5000	0.0797071
436.0000	0.0789217
435.5000	0.0780454
435.0000	0.0776963
434.5000	0.0774607
434.0000	0.0775132
433.5000	0.0779326
433.0000	0.0784349
432.5000	0.0794799
432.0000	0.0803661
431.5000	0.0820057
431.0000	0.0832541
430.5000	0.0853356
430.0000	0.0868723
429.5000	0.089301
429.0000	0.0909767
428.5000	0.0935354
428.0000	0.0952831
427.5000	0.0978671
427.0000	0.0995412
426.5000	0.101917
426.0000	0.103413
425.5000	0.105402
425.0000	0.10658
424.5000	0.108095
424.0000	0.108887
423.5000	0.109728
423.0000	0.110082
422.5000	0.110288
422.0000	0.110175
421.5000	0.109664
421.0000	0.109095
420.5000	0.107917
420.0000	0.106746
419.5000	0.105019
419.0000	0.103722
418.5000	0.101535
418.0000	0.0999449
417.5000	0.0974004
417.0000	0.0956214
416.5000	0.0928229
416.0000	0.0909542
415.5000	0.0880603
415.0000	0.0860994
414.5000	0.0832306
414.0000	0.0813785
413.5000	0.0786087
413.0000	0.0768237
412.5000	0.0742435
412.0000	0.0726158
411.5000	0.0703111
411.0000	0.0688687
410.5000	0.0669095
410.0000	0.0657404
409.5000	0.064101
409.0000	0.0631741
408.5000	0.0619296
408.0000	0.0612372
407.5000	0.0603931
407.0000	0.0599114
406.5000	0.0593536
406.0000	0.0590916
405.5000	0.0588058
405.0000	0.0587177
404.5000	0.0586982
404.0000	0.0586854
403.5000	0.0587342
403.0000	0.0587901
402.5000	0.0588689
402.0000	0.0589263
401.5000	0.0589262
401.0000	0.058913
400.5000	0.0588469
400.0000	0.0587648
399.5000	0.0585243
399.0000	0.0582874
398.5000	0.0578258
398.0000	0.0574408
397.5000	0.0567541
397.0000	0.0562162
396.5000	0.0553411
396.0000	0.0546844
395.5000	0.0536104
395.0000	0.0528308
394.5000	0.0516085
394.0000	0.0507684
393.5000	0.0494286
393.0000	0.0485347
392.5000	0.0471795
392.0000	0.0462785
391.5000	0.0449487
391.0000	0.0440652
390.5000	0.042777
390.0000	0.0419457
389.5000	0.0407333
389.0000	0.0399829
388.5000	0.0389518
388.0000	0.0382684
387.5000	0.037324
387.0000	0.0367462
386.5000	0.0360058
386.0000	0.0355187
385.5000	0.0348534
385.0000	0.0344621
384.5000	0.0339252
384.0000	0.0336134
383.5000	0.0332358
383.0000	0.0329785
382.5000	0.0326827
382.0000	0.032467
381.5000	0.0322006
381.0000	0.0320468
380.5000	0.0318219
380.0000	0.0316683
379.5000	0.0314403
379.0000	0.0313099
378.5000	0.0311191
378.0000	0.0309656
377.5000	0.0307641
377.0000	0.0305997
376.5000	0.0303794
376.0000	0.0301854
375.5000	0.0298591
375.0000	0.0296549
374.5000	0.0293401
374.0000	0.0291395
373.5000	0.028819
373.0000	0.0285917
372.5000	0.0282906
372.0000	0.0280509
371.5000	0.0277103
371.0000	0.0274444
370.5000	0.0271457
370.0000	0.0271473
369.5000	0.0268295
369.0000	0.0266754
368.5000	0.0264204
368.0000	0.0262886
367.5000	0.0261234
367.0000	0.0260173
366.5000	0.0259247
366.0000	0.0258524
365.5000	0.025818
365.0000	0.0257759
364.5000	0.0257075
364.0000	0.0257206
363.5000	0.0256986
363.0000	0.0257319
362.5000	0.0258031
362.0000	0.0257708
361.5000	0.0258073
361.0000	0.0258643
360.5000	0.0258577
360.0000	0.0258465
359.5000	0.0258705
359.0000	0.0258578
358.5000	0.0258286
358.0000	0.0258558
357.5000	0.0258714
357.0000	0.0259104
356.5000	0.0259092
356.0000	0.0258693
355.5000	0.025884
355.0000	0.0258712
354.5000	0.0259725
354.0000	0.0260058
353.5000	0.0260767
353.0000	0.026187
352.5000	0.0262362
352.0000	0.026319
351.5000	0.0264381
351.0000	0.0264472
350.5000	0.0265186
350.0000	0.0266339
349.5000	0.0267518
349.0000	0.0269013
348.5000	0.0269979
348.0000	0.0269828
347.5000	0.0271199
347.0000	0.0271642
346.5000	0.0272779
346.0000	0.0274021
345.5000	0.0275621
345.0000	0.0275981
344.5000	0.0278372
344.0000	0.0280293
343.5000	0.0281768
343.0000	0.0282767
342.5000	0.028477
342.0000	0.0286909
341.5000	0.028991
341.0000	0.0291253
340.5000	0.0293453
340.0000	0.0303438
339.5000	0.030516
339.0000	0.0307556
338.5000	0.0311404
338.0000	0.0313927
337.5000	0.0317399
337.0000	0.0319778
336.5000	0.0323787
336.0000	0.0327627
335.5000	0.0333341
335.0000	0.0337517
334.5000	0.0344036
334.0000	0.03484
333.5000	0.0355177
333.0000	0.0360334
332.5000	0.0367647
332.0000	0.0373298
331.5000	0.0382887
331.0000	0.0389156
330.5000	0.0399605
330.0000	0.0406542
329.5000	0.0417916
329.0000	0.0425923
328.5000	0.0438874
328.0000	0.0448345
327.5000	0.0463522
327.0000	0.047459
326.5000	0.0491598
326.0000	0.0503783
325.5000	0.0522591
325.0000	0.0535723
324.5000	0.0557478
324.0000	0.0572863
323.5000	0.0596829
323.0000	0.0613843
322.5000	0.0641981
322.0000	0.06611
321.5000	0.0692276
321.0000	0.0713799
320.5000	0.0747909
320.0000	0.0771951
319.5000	0.0811047
319.0000	0.0838183
318.5000	0.0880784
318.0000	0.0910914
317.5000	0.0958668
317.0000	0.0992491
316.5000	0.104599
316.0000	0.108307
315.5000	0.114213
315.0000	0.118288
314.5000	0.124855
314.0000	0.129373
313.5000	0.136558
313.0000	0.141562
312.5000	0.149474
312.0000	0.154979
311.5000	0.16369
311.0000	0.16973
310.5000	0.179269
310.0000	0.185936
309.5000	0.196405
309.0000	0.203742
308.5000	0.215212
308.0000	0.223153
307.5000	0.235726
307.0000	0.244458
306.5000	0.258122
306.0000	0.267645
305.5000	0.282623
305.0000	0.292979
304.5000	0.30926
304.0000	0.320432
303.5000	0.337961
303.0000	0.350123
302.5000	0.369108
302.0000	0.382188
301.5000	0.402666
301.0000	0.416773
300.5000	0.438693
300.0000	0.45377

##### Extended Information
[コメント情報]
試料名
コメント
測定者
所属
会社	関西大学　化学生命工学部

[データ情報]
作成日時	2014/06/02 22:13

データタイプ	等間隔データ
横軸	Wavelength [nm]
縦軸	Abs
スタート	700 nm
エンド	300 nm
データ間隔	0.5 nm
データ数	801     

[測定情報]
装置名	V-670
機種名	V-670
シリアル番号	B118261154

付属品名	USE-753
付属品シリアルNo.	B118261154
  セル長	0.1 mm

測定日時	2014/06/02 22:13

測光モード	Abs
測定範囲	700 - 300 nm
データ取込間隔	0.5 nm
UV/Vis バンド幅	1.0 nm
NIR バンド幅	8.0 nm
レスポンス	Medium
走査速度	400 nm/min
光源切換	340 nm
回折格子切換	850 nm
光源	D2/WI
フィルタ切換	ステップ
補正	ベースライン

