TITLE	
DATA TYPE	ULTRAVIOLET SPECTRUM
ORIGIN	JASCO
OWNER	
DATE	14/05/29
TIME	21:27:12
SPECTROMETER/DATA SYSTEM	
LOCALE	1041
RESOLUTION	
DELTAX	-0.5
XUNITS	NANOMETERS
YUNITS	ABSORBANCE
FIRSTX	  700.0000
LASTX	  300.0000
NPOINTS	     801
FIRSTY	     0.02177
MAXY	     2.01180
MINY	     0.01749
XYDATA
700.0000	0.0217683
699.5000	0.0218214
699.0000	0.0218702
698.5000	0.021927
698.0000	0.0219565
697.5000	0.0220046
697.0000	0.0220491
696.5000	0.0220882
696.0000	0.0221153
695.5000	0.0221499
695.0000	0.0221695
694.5000	0.0221646
694.0000	0.0221571
693.5000	0.0221692
693.0000	0.0221573
692.5000	0.022129
692.0000	0.0221291
691.5000	0.0221163
691.0000	0.0220832
690.5000	0.0220575
690.0000	0.0220215
689.5000	0.0219887
689.0000	0.0219632
688.5000	0.021937
688.0000	0.021901
687.5000	0.021861
687.0000	0.0218351
686.5000	0.0217595
686.0000	0.0217394
685.5000	0.0216618
685.0000	0.0216207
684.5000	0.021549
684.0000	0.0214892
683.5000	0.0214066
683.0000	0.0213254
682.5000	0.0212121
682.0000	0.0211462
681.5000	0.0210468
681.0000	0.0209632
680.5000	0.020846
680.0000	0.0207777
679.5000	0.0206541
679.0000	0.0205705
678.5000	0.0204519
678.0000	0.0203622
677.5000	0.0202434
677.0000	0.0201741
676.5000	0.0200552
676.0000	0.0199671
675.5000	0.0198556
675.0000	0.0197511
674.5000	0.0196293
674.0000	0.0195257
673.5000	0.0194085
673.0000	0.0193395
672.5000	0.0192083
672.0000	0.0191284
671.5000	0.0189854
671.0000	0.0189241
670.5000	0.0188037
670.0000	0.018726
669.5000	0.0186295
669.0000	0.0185534
668.5000	0.018461
668.0000	0.0184055
667.5000	0.0183307
667.0000	0.0182667
666.5000	0.018184
666.0000	0.0181291
665.5000	0.0180582
665.0000	0.0180273
664.5000	0.0179621
664.0000	0.0179321
663.5000	0.0178903
663.0000	0.0178535
662.5000	0.0177668
662.0000	0.0177332
661.5000	0.0177131
661.0000	0.0176667
660.5000	0.0176171
660.0000	0.0175999
659.5000	0.0175697
659.0000	0.0175574
658.5000	0.0175316
658.0000	0.0175316
657.5000	0.0175044
657.0000	0.0174929
656.5000	0.017515
656.0000	0.017546
655.5000	0.017539
655.0000	0.0175121
654.5000	0.0175481
654.0000	0.0175686
653.5000	0.0175812
653.0000	0.0176147
652.5000	0.0176313
652.0000	0.0176712
651.5000	0.0176981
651.0000	0.0177325
650.5000	0.0177844
650.0000	0.0178004
649.5000	0.0178392
649.0000	0.017902
648.5000	0.0179774
648.0000	0.0180216
647.5000	0.0181012
647.0000	0.018141
646.5000	0.0182256
646.0000	0.0182807
645.5000	0.0183765
645.0000	0.0184449
644.5000	0.018544
644.0000	0.0186094
643.5000	0.0187252
643.0000	0.0188195
642.5000	0.0189086
642.0000	0.0189953
641.5000	0.0191346
641.0000	0.0192245
640.5000	0.0193944
640.0000	0.0194937
639.5000	0.0196577
639.0000	0.0197443
638.5000	0.019903
638.0000	0.0200156
637.5000	0.0201891
637.0000	0.0202996
636.5000	0.0204891
636.0000	0.0206173
635.5000	0.0207737
635.0000	0.0209028
634.5000	0.0210596
634.0000	0.0211723
633.5000	0.0213673
633.0000	0.0214941
632.5000	0.0216876
632.0000	0.021819
631.5000	0.0220277
631.0000	0.0221742
630.5000	0.0223795
630.0000	0.0225245
629.5000	0.0227607
629.0000	0.0229261
628.5000	0.0231833
628.0000	0.0233515
627.5000	0.0235892
627.0000	0.023754
626.5000	0.0240181
626.0000	0.0242049
625.5000	0.0244846
625.0000	0.024651
624.5000	0.0249491
624.0000	0.0251467
623.5000	0.0254218
623.0000	0.0256311
622.5000	0.0259404
622.0000	0.0261427
621.5000	0.0264445
621.0000	0.0266868
620.5000	0.0270068
620.0000	0.0272272
619.5000	0.0275789
619.0000	0.027809
618.5000	0.0281856
618.0000	0.0284367
617.5000	0.0287778
617.0000	0.0290458
616.5000	0.0294181
616.0000	0.0296675
615.5000	0.0300726
615.0000	0.030356
614.5000	0.0307561
614.0000	0.0310449
613.5000	0.0314905
613.0000	0.0317839
612.5000	0.032248
612.0000	0.0325439
611.5000	0.0330131
611.0000	0.0333649
610.5000	0.0338491
610.0000	0.0341854
609.5000	0.0347105
609.0000	0.0350557
608.5000	0.0355885
608.0000	0.035956
607.5000	0.0365046
607.0000	0.0368766
606.5000	0.0374647
606.0000	0.0378464
605.5000	0.0384417
605.0000	0.0388591
604.5000	0.0394735
604.0000	0.0398962
603.5000	0.0405373
603.0000	0.0409683
602.5000	0.0416451
602.0000	0.0421059
601.5000	0.0428049
601.0000	0.0432711
600.5000	0.0439995
600.0000	0.044555
599.5000	0.0452958
599.0000	0.0458006
598.5000	0.0466269
598.0000	0.0471455
597.5000	0.0479578
597.0000	0.0485125
596.5000	0.0493895
596.0000	0.0499662
595.5000	0.0508315
595.0000	0.0514368
594.5000	0.0523587
594.0000	0.052991
593.5000	0.0539541
593.0000	0.0546267
592.5000	0.0556131
592.0000	0.0562878
591.5000	0.0573359
591.0000	0.0580601
590.5000	0.0591429
590.0000	0.0598759
589.5000	0.0610209
589.0000	0.0618122
588.5000	0.062992
588.0000	0.0637926
587.5000	0.0649873
587.0000	0.0658244
586.5000	0.0670934
586.0000	0.0679384
585.5000	0.06925
585.0000	0.0701683
584.5000	0.0715352
584.0000	0.0724772
583.5000	0.0738939
583.0000	0.0748471
582.5000	0.0762973
582.0000	0.077319
581.5000	0.0788739
581.0000	0.0799308
580.5000	0.0815292
580.0000	0.0826377
579.5000	0.08431
579.0000	0.0854439
578.5000	0.0871498
578.0000	0.0883113
577.5000	0.0900811
577.0000	0.0913161
576.5000	0.0932026
576.0000	0.0944774
575.5000	0.0964015
575.0000	0.0976966
574.5000	0.0996952
574.0000	0.101043
573.5000	0.103091
573.0000	0.104498
572.5000	0.106623
572.0000	0.108087
571.5000	0.110303
571.0000	0.111804
570.5000	0.114075
570.0000	0.115606
569.5000	0.117958
569.0000	0.119554
568.5000	0.121955
568.0000	0.123579
567.5000	0.126076
567.0000	0.127763
566.5000	0.130303
566.0000	0.132026
565.5000	0.134615
565.0000	0.136377
564.5000	0.139053
564.0000	0.140833
563.5000	0.143518
563.0000	0.145353
562.5000	0.148109
562.0000	0.149966
561.5000	0.152793
561.0000	0.154676
560.5000	0.157533
560.0000	0.15945
559.5000	0.162359
559.0000	0.164324
558.5000	0.167266
558.0000	0.169227
557.5000	0.17221
557.0000	0.174198
556.5000	0.177193
556.0000	0.179195
555.5000	0.18219
555.0000	0.184179
554.5000	0.187172
554.0000	0.189163
553.5000	0.192136
553.0000	0.194106
552.5000	0.197001
552.0000	0.19893
551.5000	0.201833
551.0000	0.203716
550.5000	0.206536
550.0000	0.208367
549.5000	0.211119
549.0000	0.212924
548.5000	0.215562
548.0000	0.21729
547.5000	0.219823
547.0000	0.221474
546.5000	0.223868
546.0000	0.225466
545.5000	0.227747
545.0000	0.229227
544.5000	0.231354
544.0000	0.232713
543.5000	0.234673
543.0000	0.235918
542.5000	0.237678
542.0000	0.238809
541.5000	0.240369
541.0000	0.241369
540.5000	0.242712
540.0000	0.243559
539.5000	0.244695
539.0000	0.24538
538.5000	0.2463
538.0000	0.246861
537.5000	0.247556
537.0000	0.247952
536.5000	0.248434
536.0000	0.24869
535.5000	0.248962
535.0000	0.249072
534.5000	0.249111
534.0000	0.249095
533.5000	0.24893
533.0000	0.248765
532.5000	0.248396
532.0000	0.248073
531.5000	0.247471
531.0000	0.247009
530.5000	0.246234
530.0000	0.24565
529.5000	0.244671
529.0000	0.243947
528.5000	0.242795
528.0000	0.24198
527.5000	0.240688
527.0000	0.23978
526.5000	0.238291
526.0000	0.237291
525.5000	0.235709
525.0000	0.234623
524.5000	0.232928
524.0000	0.23176
523.5000	0.229946
523.0000	0.2287
522.5000	0.226799
522.0000	0.225509
521.5000	0.223504
521.0000	0.222133
520.5000	0.220041
520.0000	0.218649
519.5000	0.216495
519.0000	0.215077
518.5000	0.212878
518.0000	0.211406
517.5000	0.209178
517.0000	0.207718
516.5000	0.205482
516.0000	0.204002
515.5000	0.20178
515.0000	0.200282
514.5000	0.198017
514.0000	0.196536
513.5000	0.194339
513.0000	0.192862
512.5000	0.190602
512.0000	0.189107
511.5000	0.186897
511.0000	0.185424
510.5000	0.18321
510.0000	0.181724
509.5000	0.17952
509.0000	0.178033
508.5000	0.17588
508.0000	0.174451
507.5000	0.172259
507.0000	0.17079
506.5000	0.168622
506.0000	0.167215
505.5000	0.165106
505.0000	0.163691
504.5000	0.16156
504.0000	0.160147
503.5000	0.158099
503.0000	0.156707
502.5000	0.154682
502.0000	0.153305
501.5000	0.151274
501.0000	0.149913
500.5000	0.147914
500.0000	0.146578
499.5000	0.144586
499.0000	0.143254
498.5000	0.141277
498.0000	0.139983
497.5000	0.138021
497.0000	0.136714
496.5000	0.134802
496.0000	0.133508
495.5000	0.131591
495.0000	0.130312
494.5000	0.128424
494.0000	0.127183
493.5000	0.12531
493.0000	0.124072
492.5000	0.122258
492.0000	0.121051
491.5000	0.119237
491.0000	0.11804
490.5000	0.116238
490.0000	0.115054
489.5000	0.113328
489.0000	0.112186
488.5000	0.110485
488.0000	0.109363
487.5000	0.107672
487.0000	0.106554
486.5000	0.104892
486.0000	0.103815
485.5000	0.102203
485.0000	0.101161
484.5000	0.0996151
484.0000	0.0985907
483.5000	0.0970851
483.0000	0.0960793
482.5000	0.0946061
482.0000	0.0936314
481.5000	0.0922112
481.0000	0.0912997
480.5000	0.0899379
480.0000	0.0890721
479.5000	0.0877526
479.0000	0.086905
478.5000	0.0856614
478.0000	0.0848425
477.5000	0.0836518
477.0000	0.0828717
476.5000	0.0817412
476.0000	0.0810068
475.5000	0.0799403
475.0000	0.0792619
474.5000	0.0782826
474.0000	0.0776545
473.5000	0.0767505
473.0000	0.0761893
472.5000	0.0753927
472.0000	0.0748878
471.5000	0.0741576
471.0000	0.0737236
470.5000	0.0731371
470.0000	0.072819
469.5000	0.072353
469.0000	0.0720991
468.5000	0.0717869
468.0000	0.0716278
467.5000	0.0715019
467.0000	0.0714722
466.5000	0.0715691
466.0000	0.0717019
465.5000	0.0720196
465.0000	0.0723428
464.5000	0.0729342
464.0000	0.0734236
463.5000	0.0743137
463.0000	0.0750275
462.5000	0.0762786
462.0000	0.0772336
461.5000	0.0788628
461.0000	0.0800672
460.5000	0.0820708
460.0000	0.0835193
459.5000	0.0859374
459.0000	0.0876536
458.5000	0.0904052
458.0000	0.0923333
457.5000	0.0953557
457.0000	0.097445
456.5000	0.100615
456.0000	0.10273
455.5000	0.10583
455.0000	0.107845
454.5000	0.110737
454.0000	0.112507
453.5000	0.114931
453.0000	0.116339
452.5000	0.118185
452.0000	0.119166
451.5000	0.120271
451.0000	0.120756
450.5000	0.121158
450.0000	0.12118
449.5000	0.120898
449.0000	0.120507
448.5000	0.119624
448.0000	0.118894
447.5000	0.117559
447.0000	0.116551
446.5000	0.114853
446.0000	0.1136
445.5000	0.111653
445.0000	0.110277
444.5000	0.108166
444.0000	0.106704
443.5000	0.104482
443.0000	0.102944
442.5000	0.100682
442.0000	0.0991861
441.5000	0.0969132
441.0000	0.0954459
440.5000	0.0933034
440.0000	0.0919428
439.5000	0.0900045
439.0000	0.0887927
438.5000	0.0871234
438.0000	0.0860774
437.5000	0.0846672
437.0000	0.0838763
436.5000	0.0828834
436.0000	0.0823258
435.5000	0.0817263
435.0000	0.08149
434.5000	0.0813242
434.0000	0.0813509
433.5000	0.0816427
433.0000	0.0819417
432.5000	0.0826239
432.0000	0.0832278
431.5000	0.0843111
431.0000	0.0851577
430.5000	0.0865229
430.0000	0.0875143
429.5000	0.0890967
429.0000	0.090156
428.5000	0.091778
428.0000	0.0928677
427.5000	0.0944091
427.0000	0.0953693
426.5000	0.0967467
426.0000	0.0975674
425.5000	0.0986517
425.0000	0.0992337
424.5000	0.0999499
424.0000	0.100275
423.5000	0.100567
423.0000	0.100614
422.5000	0.100484
422.0000	0.100255
421.5000	0.0997224
421.0000	0.0992535
420.5000	0.098359
420.0000	0.0975624
419.5000	0.0963519
419.0000	0.0954703
418.5000	0.094057
418.0000	0.0930473
417.5000	0.0914869
417.0000	0.0904074
416.5000	0.0888002
416.0000	0.0876869
415.5000	0.0860051
415.0000	0.0849259
414.5000	0.0833501
414.0000	0.0823348
413.5000	0.0808621
413.0000	0.0799546
412.5000	0.0786278
412.0000	0.0778152
411.5000	0.0766902
411.0000	0.0759786
410.5000	0.0750392
410.0000	0.0745386
409.5000	0.0739006
409.0000	0.0735634
408.5000	0.0731229
408.0000	0.0729055
407.5000	0.072712
407.0000	0.0726582
406.5000	0.0726195
406.0000	0.0726796
405.5000	0.0728391
405.0000	0.0729976
404.5000	0.0732547
404.0000	0.0734729
403.5000	0.0737511
403.0000	0.0739501
402.5000	0.0742933
402.0000	0.0745294
401.5000	0.0748143
401.0000	0.0749507
400.5000	0.0751492
400.0000	0.0752597
399.5000	0.0753629
399.0000	0.0753814
398.5000	0.0753719
398.0000	0.0753162
397.5000	0.0751541
397.0000	0.0750052
396.5000	0.0747312
396.0000	0.0745189
395.5000	0.074128
395.0000	0.0738761
394.5000	0.0734461
394.0000	0.0731331
393.5000	0.0726652
393.0000	0.0723808
392.5000	0.0719102
392.0000	0.0716073
391.5000	0.0711909
391.0000	0.0709491
390.5000	0.0706501
390.0000	0.0704738
389.5000	0.0702103
389.0000	0.0701012
388.5000	0.0699432
388.0000	0.0699073
387.5000	0.0699125
387.0000	0.0698926
386.5000	0.0699644
386.0000	0.0700773
385.5000	0.0702566
385.0000	0.0704198
384.5000	0.0706766
384.0000	0.0708492
383.5000	0.0711615
383.0000	0.0714124
382.5000	0.0718213
382.0000	0.0721386
381.5000	0.0725401
381.0000	0.0728459
380.5000	0.0733126
380.0000	0.0735871
379.5000	0.0740112
379.0000	0.0743399
378.5000	0.0748116
378.0000	0.0750911
377.5000	0.0755574
377.0000	0.0759024
376.5000	0.0762788
376.0000	0.0765595
375.5000	0.0768933
375.0000	0.0772106
374.5000	0.0776059
374.0000	0.0778587
373.5000	0.0783115
373.0000	0.0786239
372.5000	0.0790335
372.0000	0.0792877
371.5000	0.0797647
371.0000	0.0800605
370.5000	0.0804963
370.0000	0.0808835
369.5000	0.0813525
369.0000	0.081669
368.5000	0.0823366
368.0000	0.082773
367.5000	0.0832901
367.0000	0.0836245
366.5000	0.0842761
366.0000	0.0847215
365.5000	0.0852908
365.0000	0.0857844
364.5000	0.0864947
364.0000	0.086914
363.5000	0.0875709
363.0000	0.0880111
362.5000	0.0886245
362.0000	0.0890348
361.5000	0.0897073
361.0000	0.0901361
360.5000	0.0907458
360.0000	0.0911652
359.5000	0.0918038
359.0000	0.0921901
358.5000	0.0926919
358.0000	0.0930341
357.5000	0.0936061
357.0000	0.0939197
356.5000	0.0943841
356.0000	0.0947464
355.5000	0.0951217
355.0000	0.0953531
354.5000	0.0957729
354.0000	0.0960473
353.5000	0.0965246
353.0000	0.0966979
352.5000	0.0970464
352.0000	0.0972632
351.5000	0.097592
351.0000	0.0978771
350.5000	0.0982063
350.0000	0.0984796
349.5000	0.098807
349.0000	0.0991614
348.5000	0.0996403
348.0000	0.0998997
347.5000	0.100335
347.0000	0.100593
346.5000	0.101011
346.0000	0.101414
345.5000	0.101935
345.0000	0.102344
344.5000	0.102979
344.0000	0.103436
343.5000	0.10413
343.0000	0.104622
342.5000	0.105369
342.0000	0.105918
341.5000	0.106858
341.0000	0.107477
340.5000	0.108541
340.0000	0.110012
339.5000	0.111307
339.0000	0.112216
338.5000	0.113645
338.0000	0.114718
337.5000	0.116362
337.0000	0.117623
336.5000	0.119703
336.0000	0.121144
335.5000	0.123461
335.0000	0.125187
334.5000	0.127918
334.0000	0.12989
333.5000	0.132984
333.0000	0.135246
332.5000	0.138981
332.0000	0.141672
331.5000	0.145922
331.0000	0.148965
330.5000	0.153778
330.0000	0.157284
329.5000	0.162763
329.0000	0.166791
328.5000	0.173173
328.0000	0.177717
327.5000	0.185054
327.0000	0.190276
326.5000	0.19853
326.0000	0.204304
325.5000	0.213603
325.0000	0.220214
324.5000	0.23072
324.0000	0.238146
323.5000	0.249984
323.0000	0.258356
322.5000	0.27162
322.0000	0.281011
321.5000	0.295857
321.0000	0.306245
320.5000	0.322878
320.0000	0.334598
319.5000	0.35317
319.0000	0.366162
318.5000	0.386771
318.0000	0.401322
317.5000	0.424254
317.0000	0.44034
316.5000	0.465757
316.0000	0.483541
315.5000	0.51153
315.0000	0.531257
314.5000	0.562162
314.0000	0.583776
313.5000	0.617674
313.0000	0.641371
312.5000	0.678649
312.0000	0.704664
311.5000	0.745227
311.0000	0.773542
310.5000	0.817817
310.0000	0.848634
309.5000	0.896891
309.0000	0.930412
308.5000	0.982446
308.0000	1.01866
307.5000	1.07524
307.0000	1.11444
306.5000	1.1757
306.0000	1.21803
305.5000	1.28376
305.0000	1.32927
304.5000	1.39999
304.0000	1.44883
303.5000	1.52484
303.0000	1.577
302.5000	1.65809
302.0000	1.71387
301.5000	1.79999
301.0000	1.85906
300.5000	1.94978
300.0000	2.0118

##### Extended Information
[コメント情報]
試料名
コメント
測定者
所属
会社	関西大学　化学生命工学部

[データ情報]
作成日時	2014/05/29 21:27

データタイプ	等間隔データ
横軸	Wavelength [nm]
縦軸	Abs
スタート	700 nm
エンド	300 nm
データ間隔	0.5 nm
データ数	801     

[測定情報]
装置名	V-670
機種名	V-670
シリアル番号	B118261154

付属品名	USE-753
付属品シリアルNo.	B118261154
  セル長	0.1 mm

測定日時	2014/05/29 21:27

測光モード	Abs
測定範囲	700 - 300 nm
データ取込間隔	0.5 nm
UV/Vis バンド幅	1.0 nm
NIR バンド幅	8.0 nm
レスポンス	Medium
走査速度	400 nm/min
光源切換	340 nm
回折格子切換	850 nm
光源	D2/WI
フィルタ切換	ステップ
補正	ベースライン

