TITLE	
DATA TYPE	ULTRAVIOLET SPECTRUM
ORIGIN	JASCO
OWNER	
DATE	14/05/09
TIME	01:12:20
SPECTROMETER/DATA SYSTEM	
LOCALE	1041
RESOLUTION	
DELTAX	-0.5
XUNITS	NANOMETERS
YUNITS	ABSORBANCE
FIRSTX	  700.0000
LASTX	  300.0000
NPOINTS	     801
FIRSTY	    -0.00034
MAXY	     0.22538
MINY	    -0.00080
XYDATA
700.0000	-0.000344155
699.5000	-0.000335491
699.0000	-0.00034478
698.5000	-0.000334255
698.0000	-0.00034219
697.5000	-0.000358244
697.0000	-0.000364244
696.5000	-0.00035235
696.0000	-0.000347657
695.5000	-0.00035289
695.0000	-0.000323794
694.5000	-0.000336159
694.0000	-0.000339011
693.5000	-0.000352037
693.0000	-0.000350448
692.5000	-0.000325866
692.0000	-0.000338446
691.5000	-0.000352019
691.0000	-0.000360137
690.5000	-0.000383211
690.0000	-0.000390555
689.5000	-0.000406857
689.0000	-0.000428051
688.5000	-0.000470703
688.0000	-0.000469378
687.5000	-0.000484053
687.0000	-0.000478636
686.5000	-0.000511521
686.0000	-0.000527326
685.5000	-0.000514789
685.0000	-0.000514284
684.5000	-0.000496707
684.0000	-0.000495867
683.5000	-0.000497271
683.0000	-0.000490836
682.5000	-0.000473164
682.0000	-0.000499381
681.5000	-0.000541677
681.0000	-0.000559449
680.5000	-0.000555806
680.0000	-0.00055077
679.5000	-0.000562028
679.0000	-0.000584508
678.5000	-0.000600422
678.0000	-0.000632066
677.5000	-0.000646164
677.0000	-0.000653811
676.5000	-0.000673406
676.0000	-0.000675988
675.5000	-0.000662774
675.0000	-0.000651252
674.5000	-0.000666039
674.0000	-0.000667271
673.5000	-0.000677689
673.0000	-0.000699377
672.5000	-0.000686338
672.0000	-0.000695865
671.5000	-0.000689809
671.0000	-0.000675619
670.5000	-0.000689389
670.0000	-0.000693672
669.5000	-0.000700153
669.0000	-0.000698393
668.5000	-0.000683789
668.0000	-0.000688728
667.5000	-0.000690772
667.0000	-0.000716228
666.5000	-0.000713704
666.0000	-0.000742082
665.5000	-0.00072554
665.0000	-0.000726999
664.5000	-0.000754512
664.0000	-0.000745199
663.5000	-0.000749294
663.0000	-0.000729838
662.5000	-0.000726003
662.0000	-0.000737644
661.5000	-0.000733597
661.0000	-0.00075323
660.5000	-0.0007314
660.0000	-0.000720475
659.5000	-0.000727695
659.0000	-0.000728735
658.5000	-0.0007294
658.0000	-0.000730821
657.5000	-0.00074907
657.0000	-0.000758817
656.5000	-0.000786373
656.0000	-0.000794831
655.5000	-0.0007835
655.0000	-0.000801345
654.5000	-0.000790806
654.0000	-0.000801138
653.5000	-0.000781006
653.0000	-0.000785016
652.5000	-0.000776603
652.0000	-0.000783881
651.5000	-0.000784594
651.0000	-0.000766798
650.5000	-0.000744624
650.0000	-0.000730773
649.5000	-0.000730509
649.0000	-0.000732878
648.5000	-0.000717823
648.0000	-0.000718294
647.5000	-0.00071491
647.0000	-0.000722859
646.5000	-0.000720362
646.0000	-0.000702751
645.5000	-0.000687292
645.0000	-0.00068724
644.5000	-0.000686425
644.0000	-0.000689111
643.5000	-0.000671931
643.0000	-0.000668781
642.5000	-0.000671761
642.0000	-0.000666549
641.5000	-0.000638081
641.0000	-0.000634213
640.5000	-0.000615894
640.0000	-0.000619784
639.5000	-0.000624739
639.0000	-0.000630538
638.5000	-0.00062818
638.0000	-0.000627436
637.5000	-0.000610738
637.0000	-0.000602964
636.5000	-0.000578426
636.0000	-0.000573394
635.5000	-0.000570588
635.0000	-0.000566938
634.5000	-0.000560214
634.0000	-0.000576672
633.5000	-0.000552637
633.0000	-0.000552165
632.5000	-0.000517149
632.0000	-0.000520862
631.5000	-0.000517887
631.0000	-0.000503648
630.5000	-0.000500093
630.0000	-0.000510714
629.5000	-0.000483338
629.0000	-0.00048155
628.5000	-0.000467604
628.0000	-0.000454044
627.5000	-0.000420232
627.0000	-0.00042576
626.5000	-0.000409963
626.0000	-0.000401572
625.5000	-0.000368085
625.0000	-0.000349161
624.5000	-0.00034367
624.0000	-0.000342432
623.5000	-0.00033853
623.0000	-0.000350539
622.5000	-0.000353198
622.0000	-0.000354816
621.5000	-0.000354056
621.0000	-0.000356261
620.5000	-0.000324152
620.0000	-0.00031244
619.5000	-0.000303025
619.0000	-0.000295322
618.5000	-0.000275609
618.0000	-0.000277463
617.5000	-0.000248374
617.0000	-0.000226872
616.5000	-0.000188822
616.0000	-0.00017231
615.5000	-0.000139569
615.0000	-0.000137478
614.5000	-0.000109862
614.0000	-0.00010961
613.5000	-0.000106952
613.0000	-8.35686E-005
612.5000	-6.56092E-005
612.0000	-5.9109E-005
611.5000	-3.72627E-005
611.0000	-3.148E-005
610.5000	-1.88041E-005
610.0000	-1.50276E-005
609.5000	-1.33846E-005
609.0000	-5.6407E-006
608.5000	1.40942E-005
608.0000	2.2196E-005
607.5000	4.1902E-005
607.0000	5.75677E-005
606.5000	7.19091E-005
606.0000	8.51651E-005
605.5000	0.000108648
605.0000	0.000117996
604.5000	0.000125887
604.0000	0.000138903
603.5000	0.000175339
603.0000	0.000216234
602.5000	0.000248286
602.0000	0.000254246
601.5000	0.000269611
601.0000	0.000295629
600.5000	0.0003074
600.0000	0.000265155
599.5000	0.000262786
599.0000	0.000303166
598.5000	0.000292813
598.0000	0.000325931
597.5000	0.000354762
597.0000	0.000384677
596.5000	0.000398235
596.0000	0.000411987
595.5000	0.000423184
595.0000	0.000450379
594.5000	0.000481323
594.0000	0.000497703
593.5000	0.000497505
593.0000	0.000521571
592.5000	0.00053567
592.0000	0.000563202
591.5000	0.000579696
591.0000	0.000586646
590.5000	0.000599206
590.0000	0.000627495
589.5000	0.000664025
589.0000	0.000673201
588.5000	0.000719762
588.0000	0.000757004
587.5000	0.000815251
587.0000	0.000836119
586.5000	0.000876005
586.0000	0.00091241
585.5000	0.000939472
585.0000	0.000969819
584.5000	0.00100817
584.0000	0.00104059
583.5000	0.00108385
583.0000	0.00112737
582.5000	0.00117373
582.0000	0.00120049
581.5000	0.00122924
581.0000	0.00125164
580.5000	0.00130876
580.0000	0.00134241
579.5000	0.00136489
579.0000	0.00139024
578.5000	0.00144705
578.0000	0.00148562
577.5000	0.00154378
577.0000	0.00158249
576.5000	0.00163788
576.0000	0.00166528
575.5000	0.00170774
575.0000	0.00173838
574.5000	0.00178439
574.0000	0.00182937
573.5000	0.00190692
573.0000	0.00194743
572.5000	0.00202796
572.0000	0.00209319
571.5000	0.00214174
571.0000	0.00218788
570.5000	0.00225404
570.0000	0.00228289
569.5000	0.00235764
569.0000	0.00242254
568.5000	0.00248619
568.0000	0.00254074
567.5000	0.00260011
567.0000	0.00263839
566.5000	0.00272094
566.0000	0.00276053
565.5000	0.00283789
565.0000	0.00287936
564.5000	0.00294891
564.0000	0.00300424
563.5000	0.00306973
563.0000	0.00312624
562.5000	0.00318305
562.0000	0.0032414
561.5000	0.0033124
561.0000	0.00336977
560.5000	0.00343847
560.0000	0.00348619
559.5000	0.00356212
559.0000	0.00360482
558.5000	0.00369436
558.0000	0.00375936
557.5000	0.00386478
557.0000	0.00392586
556.5000	0.00402428
556.0000	0.00410699
555.5000	0.00418875
555.0000	0.00422203
554.5000	0.00431294
554.0000	0.00438049
553.5000	0.00446286
553.0000	0.00450712
552.5000	0.00459348
552.0000	0.00463918
551.5000	0.00471241
551.0000	0.00474467
550.5000	0.0048014
550.0000	0.00486226
549.5000	0.00492888
549.0000	0.00497414
548.5000	0.00506322
548.0000	0.00510422
547.5000	0.00515718
547.0000	0.00520936
546.5000	0.00528448
546.0000	0.00532474
545.5000	0.00538587
545.0000	0.0054207
544.5000	0.00547871
544.0000	0.0055149
543.5000	0.00555392
543.0000	0.00558626
542.5000	0.00562532
542.0000	0.00566606
541.5000	0.0057147
541.0000	0.00574079
540.5000	0.00578025
540.0000	0.0057851
539.5000	0.00583261
539.0000	0.00584929
538.5000	0.00585614
538.0000	0.00586736
537.5000	0.00588843
537.0000	0.00588832
536.5000	0.0059087
536.0000	0.00590491
535.5000	0.00590881
535.0000	0.00590801
534.5000	0.00590886
534.0000	0.00588992
533.5000	0.00586526
533.0000	0.00584641
532.5000	0.0058147
532.0000	0.00581472
531.5000	0.00576147
531.0000	0.0057579
530.5000	0.00570879
530.0000	0.0056743
529.5000	0.00564007
529.0000	0.00561081
528.5000	0.00557213
528.0000	0.00554056
527.5000	0.00550179
527.0000	0.00547302
526.5000	0.00543323
526.0000	0.00538399
525.5000	0.00532947
525.0000	0.00531068
524.5000	0.00522533
524.0000	0.00518362
523.5000	0.00512976
523.0000	0.00507826
522.5000	0.00500946
522.0000	0.00496048
521.5000	0.00488005
521.0000	0.00483138
520.5000	0.00474847
520.0000	0.00481909
519.5000	0.00473338
519.0000	0.00468541
518.5000	0.00463245
518.0000	0.0045954
517.5000	0.00451536
517.0000	0.00446477
516.5000	0.00437631
516.0000	0.00433414
515.5000	0.00427943
515.0000	0.00421867
514.5000	0.00413197
514.0000	0.00407422
513.5000	0.00398412
513.0000	0.00393724
512.5000	0.00388377
512.0000	0.00381852
511.5000	0.0037583
511.0000	0.00371488
510.5000	0.00366828
510.0000	0.00364196
509.5000	0.00353662
509.0000	0.00348176
508.5000	0.00344683
508.0000	0.00341173
507.5000	0.00332363
507.0000	0.00327493
506.5000	0.00321388
506.0000	0.00316742
505.5000	0.003087
505.0000	0.0030091
504.5000	0.00292461
504.0000	0.00287234
503.5000	0.00277421
503.0000	0.00274312
502.5000	0.00268425
502.0000	0.00263536
501.5000	0.00258558
501.0000	0.00256172
500.5000	0.00251579
500.0000	0.00244801
499.5000	0.00237092
499.0000	0.00232878
498.5000	0.00229476
498.0000	0.00226788
497.5000	0.00224039
497.0000	0.0022227
496.5000	0.00218289
496.0000	0.00213387
495.5000	0.00207987
495.0000	0.00203937
494.5000	0.00199095
494.0000	0.00196997
493.5000	0.00197233
493.0000	0.00195992
492.5000	0.00193999
492.0000	0.00193015
491.5000	0.00190293
491.0000	0.00188372
490.5000	0.0018466
490.0000	0.00184433
489.5000	0.00183525
489.0000	0.00180894
488.5000	0.00178336
488.0000	0.00178797
487.5000	0.00177604
487.0000	0.00175469
486.5000	0.00174965
486.0000	0.00176151
485.5000	0.00175143
485.0000	0.00177591
484.5000	0.00179758
484.0000	0.00181828
483.5000	0.00183918
483.0000	0.00188758
482.5000	0.00194284
482.0000	0.00198856
481.5000	0.00206948
481.0000	0.00212157
480.5000	0.00221817
480.0000	0.00229646
479.5000	0.00242836
479.0000	0.0025152
478.5000	0.0026557
478.0000	0.00276663
477.5000	0.00296223
477.0000	0.00309958
476.5000	0.00332557
476.0000	0.00350637
475.5000	0.00379155
475.0000	0.00399306
474.5000	0.0043365
474.0000	0.00460219
473.5000	0.00501202
473.0000	0.00531612
472.5000	0.0057965
472.0000	0.00616411
471.5000	0.00676426
471.0000	0.00721127
470.5000	0.00795035
470.0000	0.00849769
469.5000	0.00939225
469.0000	0.0100446
468.5000	0.0111554
468.0000	0.0119357
467.5000	0.0132368
467.0000	0.0141958
466.5000	0.0157791
466.0000	0.0169443
465.5000	0.0188386
465.0000	0.0202118
464.5000	0.0224316
464.0000	0.0240719
463.5000	0.0267119
463.0000	0.0286206
462.5000	0.0317361
462.0000	0.0339361
461.5000	0.0374763
461.0000	0.0399935
460.5000	0.0440258
460.0000	0.0468729
459.5000	0.0513904
459.0000	0.054549
458.5000	0.0594897
458.0000	0.0629189
457.5000	0.0681832
457.0000	0.0717786
456.5000	0.0772218
456.0000	0.0808786
455.5000	0.0863326
455.0000	0.0899454
454.5000	0.0951816
454.0000	0.0985095
453.5000	0.103198
453.0000	0.106079
452.5000	0.109999
452.0000	0.11231
451.5000	0.115289
451.0000	0.116931
450.5000	0.118865
450.0000	0.119798
449.5000	0.120621
449.0000	0.120819
448.5000	0.12056
448.0000	0.120124
447.5000	0.119005
447.0000	0.118037
446.5000	0.116216
446.0000	0.114778
445.5000	0.112358
445.0000	0.11061
444.5000	0.10779
444.0000	0.105798
443.5000	0.102742
443.0000	0.100671
442.5000	0.0975051
442.0000	0.0953926
441.5000	0.092253
441.0000	0.0901782
440.5000	0.0871524
440.0000	0.0852118
439.5000	0.0824631
439.0000	0.080743
438.5000	0.0783102
438.0000	0.0768354
437.5000	0.0748926
437.0000	0.0737383
436.5000	0.0723131
436.0000	0.0715532
435.5000	0.0707227
435.0000	0.0703581
434.5000	0.0701538
434.0000	0.070255
433.5000	0.0707148
433.0000	0.0712198
432.5000	0.0722917
432.0000	0.0732182
431.5000	0.0748961
431.0000	0.0761554
430.5000	0.0782503
430.0000	0.0797967
429.5000	0.0822475
429.0000	0.0839286
428.5000	0.0865505
428.0000	0.0883104
427.5000	0.0908965
427.0000	0.0925635
426.5000	0.0949457
426.0000	0.0964327
425.5000	0.0984155
425.0000	0.0995725
424.5000	0.10102
424.0000	0.101802
423.5000	0.102622
423.0000	0.102947
422.5000	0.103072
422.0000	0.102932
421.5000	0.102343
421.0000	0.101742
420.5000	0.100498
420.0000	0.099744
419.5000	0.0979213
419.0000	0.0965293
418.5000	0.0942465
418.0000	0.0925772
417.5000	0.0899585
417.0000	0.0880758
416.5000	0.0852065
416.0000	0.0832659
415.5000	0.0803234
415.0000	0.0783612
414.5000	0.0754242
414.0000	0.0734555
413.5000	0.0706633
413.0000	0.0688677
412.5000	0.0662447
412.0000	0.0646214
411.5000	0.0622843
411.0000	0.0608364
410.5000	0.058855
410.0000	0.0576883
409.5000	0.0560833
409.0000	0.0551174
408.5000	0.0538382
408.0000	0.0531427
407.5000	0.0522816
407.0000	0.0518052
406.5000	0.0512526
406.0000	0.050975
405.5000	0.0506526
405.0000	0.0505427
404.5000	0.0504957
404.0000	0.0504704
403.5000	0.0504592
403.0000	0.0504746
402.5000	0.0505272
402.0000	0.0505484
401.5000	0.0505513
401.0000	0.0505016
400.5000	0.0503924
400.0000	0.0502435
399.5000	0.0499171
399.0000	0.0496559
398.5000	0.0491011
398.0000	0.0486607
397.5000	0.0479326
397.0000	0.0473186
396.5000	0.0463523
396.0000	0.0456177
395.5000	0.0444817
395.0000	0.043614
394.5000	0.0423303
394.0000	0.04139
393.5000	0.0399708
393.0000	0.0389832
392.5000	0.0375355
392.0000	0.0365772
391.5000	0.0351566
391.0000	0.0342045
390.5000	0.0328794
390.0000	0.0320042
389.5000	0.0307196
389.0000	0.0298958
388.5000	0.0287191
388.0000	0.0279802
387.5000	0.0270506
387.0000	0.0264389
386.5000	0.0255962
386.0000	0.0251152
385.5000	0.0243906
385.0000	0.0239349
384.5000	0.0233705
384.0000	0.0230002
383.5000	0.0225215
383.0000	0.0222522
382.5000	0.0219044
382.0000	0.021692
381.5000	0.0213155
381.0000	0.021085
380.5000	0.0207787
380.0000	0.0206043
379.5000	0.0202541
379.0000	0.0200692
378.5000	0.0198173
378.0000	0.0196151
377.5000	0.0193297
377.0000	0.019129
376.5000	0.0188094
376.0000	0.0185695
375.5000	0.0181956
375.0000	0.0179327
374.5000	0.017586
374.0000	0.0173122
373.5000	0.016914
373.0000	0.0166406
372.5000	0.0161736
372.0000	0.0158786
371.5000	0.0154727
371.0000	0.0151909
370.5000	0.0147331
370.0000	0.015146
369.5000	0.014692
369.0000	0.0145072
368.5000	0.0141429
368.0000	0.0138758
367.5000	0.0136003
367.0000	0.013395
366.5000	0.0131574
366.0000	0.0130694
365.5000	0.0128569
365.0000	0.01278
364.5000	0.0126252
364.0000	0.0124909
363.5000	0.0122935
363.0000	0.0122722
362.5000	0.0121929
362.0000	0.0121605
361.5000	0.0120668
361.0000	0.0119449
360.5000	0.0118444
360.0000	0.0117493
359.5000	0.0116387
359.0000	0.0116142
358.5000	0.0115046
358.0000	0.0114606
357.5000	0.0114223
357.0000	0.0113711
356.5000	0.0112211
356.0000	0.0111423
355.5000	0.0110445
355.0000	0.0110038
354.5000	0.0109145
354.0000	0.0108649
353.5000	0.0107627
353.0000	0.0107574
352.5000	0.0106778
352.0000	0.0106118
351.5000	0.010515
351.0000	0.010515
350.5000	0.0104709
350.0000	0.0104303
349.5000	0.0104917
349.0000	0.0104978
348.5000	0.0104762
348.0000	0.0104508
347.5000	0.0104485
347.0000	0.0104887
346.5000	0.01044
346.0000	0.0104553
345.5000	0.0105165
345.0000	0.0105224
344.5000	0.0105931
344.0000	0.0106273
343.5000	0.010646
343.0000	0.0105874
342.5000	0.0105659
342.0000	0.0106438
341.5000	0.0107591
341.0000	0.0107835
340.5000	0.0108451
340.0000	0.011248
339.5000	0.0112961
339.0000	0.0113729
338.5000	0.0115492
338.0000	0.0116015
337.5000	0.0116992
337.0000	0.0118324
336.5000	0.0119364
336.0000	0.0120518
335.5000	0.0122274
335.0000	0.012416
334.5000	0.0127065
334.0000	0.0129054
333.5000	0.0132378
333.0000	0.0134338
332.5000	0.0138109
332.0000	0.0140729
331.5000	0.0145841
331.0000	0.0148877
330.5000	0.0153447
330.0000	0.0157157
329.5000	0.0163128
329.0000	0.0167072
328.5000	0.0173232
328.0000	0.0178172
327.5000	0.0185041
327.0000	0.0189968
326.5000	0.0198461
326.0000	0.0203714
325.5000	0.0213122
325.0000	0.0219337
324.5000	0.0230123
324.0000	0.0238355
323.5000	0.0249572
323.0000	0.0258619
322.5000	0.0272004
322.0000	0.0281953
321.5000	0.0297494
321.0000	0.0308097
320.5000	0.0325302
320.0000	0.0337466
319.5000	0.0356973
319.0000	0.0370743
318.5000	0.0392092
318.0000	0.0407139
317.5000	0.043161
317.0000	0.0448967
316.5000	0.0475043
316.0000	0.0494318
315.5000	0.0524567
315.0000	0.0545048
314.5000	0.0577411
314.0000	0.0601228
313.5000	0.0638247
313.0000	0.0663333
312.5000	0.0703265
312.0000	0.073167
311.5000	0.0775659
311.0000	0.0806496
310.5000	0.0854512
310.0000	0.0888338
309.5000	0.0940655
309.0000	0.0977413
308.5000	0.103601
308.0000	0.107647
307.5000	0.113887
307.0000	0.118267
306.5000	0.125233
306.0000	0.130069
305.5000	0.137651
305.0000	0.142939
304.5000	0.151101
304.0000	0.156847
303.5000	0.165829
303.0000	0.172073
302.5000	0.181738
302.0000	0.188457
301.5000	0.19899
301.0000	0.206274
300.5000	0.21755
300.0000	0.225381

##### Extended Information
[コメント情報]
試料名
コメント
測定者
所属
会社	関西大学　化学生命工学部

[データ情報]
作成日時	2014/05/09 1:12

データタイプ	等間隔データ
横軸	Wavelength [nm]
縦軸	Abs
スタート	700 nm
エンド	300 nm
データ間隔	0.5 nm
データ数	801     

[測定情報]
装置名	V-670
機種名	V-670
シリアル番号	B118261154

付属品名	USE-753
付属品シリアルNo.	B118261154
  セル長	0.1 mm

測定日時	2014/05/09 1:12

測光モード	Abs
測定範囲	700 - 300 nm
データ取込間隔	0.5 nm
UV/Vis バンド幅	1.0 nm
NIR バンド幅	8.0 nm
レスポンス	Medium
走査速度	400 nm/min
光源切換	340 nm
回折格子切換	850 nm
光源	D2/WI
フィルタ切換	ステップ
補正	ベースライン

