TITLE	
DATA TYPE	ULTRAVIOLET SPECTRUM
ORIGIN	JASCO
OWNER	
DATE	14/06/04
TIME	21:43:41
SPECTROMETER/DATA SYSTEM	
LOCALE	1041
RESOLUTION	
DELTAX	-0.5
XUNITS	NANOMETERS
YUNITS	ABSORBANCE
FIRSTX	  700.0000
LASTX	  300.0000
NPOINTS	     801
FIRSTY	     0.00719
MAXY	     0.53350
MINY	     0.00585
XYDATA
700.0000	0.00719286
699.5000	0.0071779
699.0000	0.00715785
698.5000	0.00714054
698.0000	0.00713506
697.5000	0.00713181
697.0000	0.00712773
696.5000	0.0071035
696.0000	0.00708893
695.5000	0.00707869
695.0000	0.00707401
694.5000	0.00704759
694.0000	0.00702906
693.5000	0.00700976
693.0000	0.00699469
692.5000	0.00695287
692.0000	0.00693294
691.5000	0.00692799
691.0000	0.00689974
690.5000	0.00686025
690.0000	0.0068584
689.5000	0.00682869
689.0000	0.00680056
688.5000	0.00676314
688.0000	0.00674926
687.5000	0.00671917
687.0000	0.00672051
686.5000	0.00668773
686.0000	0.00667867
685.5000	0.00666041
685.0000	0.0066296
684.5000	0.00658069
684.0000	0.00658241
683.5000	0.00653625
683.0000	0.00652905
682.5000	0.00651278
682.0000	0.0064911
681.5000	0.00647272
681.0000	0.00644653
680.5000	0.00642103
680.0000	0.00642186
679.5000	0.00638556
679.0000	0.00638033
678.5000	0.00634208
678.0000	0.00636075
677.5000	0.00635336
677.0000	0.00634375
676.5000	0.00630449
676.0000	0.00627566
675.5000	0.00626382
675.0000	0.00624084
674.5000	0.00622045
674.0000	0.00619546
673.5000	0.00617609
673.0000	0.00616178
672.5000	0.00612601
672.0000	0.0061019
671.5000	0.00607728
671.0000	0.00604691
670.5000	0.00603343
670.0000	0.0060347
669.5000	0.00603711
669.0000	0.00603292
668.5000	0.00598634
668.0000	0.00596871
667.5000	0.00596894
667.0000	0.0059634
666.5000	0.00595713
666.0000	0.00596775
665.5000	0.0059716
665.0000	0.0059474
664.5000	0.0059083
664.0000	0.00590085
663.5000	0.00589952
663.0000	0.00589134
662.5000	0.00588139
662.0000	0.0058949
661.5000	0.0059031
661.0000	0.0058745
660.5000	0.00586998
660.0000	0.00585873
659.5000	0.00584549
659.0000	0.00585751
658.5000	0.00586543
658.0000	0.00590018
657.5000	0.00592534
657.0000	0.00592408
656.5000	0.00590726
656.0000	0.00591549
655.5000	0.00591948
655.0000	0.00592885
654.5000	0.00594814
654.0000	0.00594094
653.5000	0.00599035
653.0000	0.0059988
652.5000	0.00599685
652.0000	0.00598639
651.5000	0.00597004
651.0000	0.00596108
650.5000	0.00597581
650.0000	0.00597763
649.5000	0.00603297
649.0000	0.00604843
648.5000	0.00605801
648.0000	0.00607963
647.5000	0.00609193
647.0000	0.00609551
646.5000	0.00611881
646.0000	0.00612509
645.5000	0.00614848
645.0000	0.00617072
644.5000	0.00620785
644.0000	0.00622013
643.5000	0.00622917
643.0000	0.00622891
642.5000	0.0062549
642.0000	0.0062486
641.5000	0.00627036
641.0000	0.00630166
640.5000	0.00633609
640.0000	0.00633561
639.5000	0.00636809
639.0000	0.00639629
638.5000	0.00644091
638.0000	0.00645961
637.5000	0.00646863
637.0000	0.00649635
636.5000	0.00653201
636.0000	0.00654666
635.5000	0.00658865
635.0000	0.00662195
634.5000	0.00665546
634.0000	0.00667926
633.5000	0.00673285
633.0000	0.00675818
632.5000	0.00678275
632.0000	0.00678781
631.5000	0.00682911
631.0000	0.00688268
630.5000	0.00693905
630.0000	0.00696248
629.5000	0.00699345
629.0000	0.00704791
628.5000	0.00709229
628.0000	0.00711438
627.5000	0.00716253
627.0000	0.00721261
626.5000	0.00726858
626.0000	0.00731843
625.5000	0.0073909
625.0000	0.00744732
624.5000	0.00751098
624.0000	0.00755036
623.5000	0.00761717
623.0000	0.00767067
622.5000	0.00773186
622.0000	0.0077681
621.5000	0.00783747
621.0000	0.00789457
620.5000	0.00796781
620.0000	0.00805167
619.5000	0.00813899
619.0000	0.00821186
618.5000	0.00830427
618.0000	0.00836013
617.5000	0.00844253
617.0000	0.00849795
616.5000	0.00858743
616.0000	0.00865595
615.5000	0.00875116
615.0000	0.00880496
614.5000	0.0088818
614.0000	0.00895665
613.5000	0.00900544
613.0000	0.00904497
612.5000	0.00910615
612.0000	0.00915851
611.5000	0.00923262
611.0000	0.00930389
610.5000	0.00941983
610.0000	0.00947244
609.5000	0.0095693
609.0000	0.00963287
608.5000	0.00975827
608.0000	0.00983114
607.5000	0.00995549
607.0000	0.0100291
606.5000	0.0101709
606.0000	0.010248
605.5000	0.0103592
605.0000	0.0104341
604.5000	0.0105533
604.0000	0.0106344
603.5000	0.0107685
603.0000	0.0108495
602.5000	0.0109849
602.0000	0.0110593
601.5000	0.0112105
601.0000	0.011288
600.5000	0.011434
600.0000	0.0116022
599.5000	0.0117821
599.0000	0.0118809
598.5000	0.012023
598.0000	0.0121344
597.5000	0.012311
597.0000	0.0124195
596.5000	0.0125828
596.0000	0.0126975
595.5000	0.012903
595.0000	0.0130421
594.5000	0.0132282
594.0000	0.0133752
593.5000	0.0135869
593.0000	0.013725
592.5000	0.0139477
592.0000	0.0140933
591.5000	0.0143192
591.0000	0.0144557
590.5000	0.0146841
590.0000	0.0148504
589.5000	0.0150979
589.0000	0.0152633
588.5000	0.0154955
588.0000	0.0156814
587.5000	0.0159436
587.0000	0.0161421
586.5000	0.0163901
586.0000	0.016563
585.5000	0.0168704
585.0000	0.0170688
584.5000	0.0174109
584.0000	0.0176146
583.5000	0.0179354
583.0000	0.0181413
582.5000	0.01848
582.0000	0.0187174
581.5000	0.0190542
581.0000	0.019292
580.5000	0.0196514
580.0000	0.0199127
579.5000	0.0203242
579.0000	0.0205839
578.5000	0.0209936
578.0000	0.0212506
577.5000	0.0216864
577.0000	0.0220072
576.5000	0.0224596
576.0000	0.0227621
575.5000	0.0232359
575.0000	0.023548
574.5000	0.0240244
574.0000	0.0243668
573.5000	0.0248621
573.0000	0.0252052
572.5000	0.0257712
572.0000	0.0261405
571.5000	0.0267167
571.0000	0.027117
570.5000	0.0276939
570.0000	0.0281057
569.5000	0.0287145
569.0000	0.0291346
568.5000	0.0297997
568.0000	0.0302534
567.5000	0.0309098
567.0000	0.031366
566.5000	0.0320283
566.0000	0.0324636
565.5000	0.0331552
565.0000	0.0336464
564.5000	0.0343716
564.0000	0.034865
563.5000	0.0355988
563.0000	0.0361362
562.5000	0.0368719
562.0000	0.03738
561.5000	0.0381457
561.0000	0.0386926
560.5000	0.0394977
560.0000	0.0400501
559.5000	0.040851
559.0000	0.0413962
558.5000	0.0422084
558.0000	0.0427369
557.5000	0.0435293
557.0000	0.0440817
556.5000	0.0448744
556.0000	0.0454251
555.5000	0.0462258
555.0000	0.0467434
554.5000	0.0475167
554.0000	0.048034
553.5000	0.0488013
553.0000	0.049339
552.5000	0.0501013
552.0000	0.0505982
551.5000	0.0513543
551.0000	0.0518488
550.5000	0.0525755
550.0000	0.0530552
549.5000	0.0537515
549.0000	0.0542086
548.5000	0.0548902
548.0000	0.0553437
547.5000	0.0559707
547.0000	0.0564191
546.5000	0.0570399
546.0000	0.0574325
545.5000	0.0580208
545.0000	0.0584115
544.5000	0.0589893
544.0000	0.0593345
543.5000	0.0598511
543.0000	0.060195
542.5000	0.0606607
542.0000	0.0609804
541.5000	0.0614402
541.0000	0.0617212
540.5000	0.0621059
540.0000	0.0623597
539.5000	0.0627262
539.0000	0.0629785
538.5000	0.0632838
538.0000	0.0634957
537.5000	0.0638159
537.0000	0.0639987
536.5000	0.0642764
536.0000	0.0644536
535.5000	0.0647053
535.0000	0.0648646
534.5000	0.0651
534.0000	0.0652441
533.5000	0.065426
533.0000	0.0655282
532.5000	0.0656461
532.0000	0.0657392
531.5000	0.0657906
531.0000	0.0658188
530.5000	0.0658383
530.0000	0.0658579
529.5000	0.0658335
529.0000	0.065779
528.5000	0.065664
528.0000	0.06559
527.5000	0.0654232
527.0000	0.0652848
526.5000	0.0650617
526.0000	0.0648992
525.5000	0.0646359
525.0000	0.064433
524.5000	0.0640869
524.0000	0.063852
523.5000	0.0634438
523.0000	0.0631525
522.5000	0.0627306
522.0000	0.0624298
521.5000	0.0619161
521.0000	0.0615705
520.5000	0.0610677
520.0000	0.0608484
519.5000	0.0602915
519.0000	0.0598813
518.5000	0.0593094
518.0000	0.0589274
517.5000	0.058345
517.0000	0.0579126
516.5000	0.0572715
516.0000	0.0568768
515.5000	0.0562544
515.0000	0.0557946
514.5000	0.0551104
514.0000	0.0546921
513.5000	0.0540278
513.0000	0.053545
512.5000	0.0528928
512.0000	0.0524364
511.5000	0.0517571
511.0000	0.0512983
510.5000	0.0506295
510.0000	0.0501885
509.5000	0.0495186
509.0000	0.049095
508.5000	0.0484578
508.0000	0.0480569
507.5000	0.0474196
507.0000	0.0469938
506.5000	0.0463818
506.0000	0.0459704
505.5000	0.0453826
505.0000	0.0449991
504.5000	0.0444038
504.0000	0.044008
503.5000	0.043451
503.0000	0.0430943
502.5000	0.0425628
502.0000	0.0421808
501.5000	0.0416505
501.0000	0.0412887
500.5000	0.0407915
500.0000	0.0404422
499.5000	0.0399255
499.0000	0.0395759
498.5000	0.0390992
498.0000	0.0387784
497.5000	0.0382948
497.0000	0.0379629
496.5000	0.0374901
496.0000	0.0371799
495.5000	0.036716
495.0000	0.0363961
494.5000	0.0359398
494.0000	0.0356271
493.5000	0.0351848
493.0000	0.0348793
492.5000	0.0344431
492.0000	0.0341509
491.5000	0.0337474
491.0000	0.0334699
490.5000	0.0330547
490.0000	0.032781
489.5000	0.0323552
489.0000	0.0320825
488.5000	0.0316855
488.0000	0.0314251
487.5000	0.0310572
487.0000	0.0308039
486.5000	0.0304192
486.0000	0.0301828
485.5000	0.0298008
485.0000	0.0295595
484.5000	0.0291952
484.0000	0.0289614
483.5000	0.0286082
483.0000	0.0284069
482.5000	0.0280762
482.0000	0.0278853
481.5000	0.027593
481.0000	0.0274163
480.5000	0.0271427
480.0000	0.0269801
479.5000	0.0267135
479.0000	0.0265871
478.5000	0.0263475
478.0000	0.0262325
477.5000	0.0260742
477.0000	0.0260115
476.5000	0.0258958
476.0000	0.0258478
475.5000	0.0257923
475.0000	0.0257738
474.5000	0.0257943
474.0000	0.0258249
473.5000	0.0258984
473.0000	0.0259826
472.5000	0.0261724
472.0000	0.0263331
471.5000	0.0266009
471.0000	0.0268257
470.5000	0.0272289
470.0000	0.0275382
469.5000	0.0280834
469.0000	0.0285056
468.5000	0.029218
468.0000	0.0297411
467.5000	0.0306877
467.0000	0.0313974
466.5000	0.0325771
466.0000	0.033463
465.5000	0.0349293
465.0000	0.0360221
464.5000	0.0378449
464.0000	0.0391325
463.5000	0.0412735
463.0000	0.0428549
462.5000	0.0454515
462.0000	0.0473198
461.5000	0.0503324
461.0000	0.052514
460.5000	0.056027
460.0000	0.0585235
459.5000	0.0624769
459.0000	0.0652797
458.5000	0.0696799
458.0000	0.0727261
457.5000	0.0775009
457.0000	0.0807843
456.5000	0.0857783
456.0000	0.0891226
455.5000	0.0941274
455.0000	0.0974487
454.5000	0.102244
454.0000	0.105312
453.5000	0.109698
453.0000	0.112398
452.5000	0.116083
452.0000	0.118247
451.5000	0.12102
451.0000	0.122573
450.5000	0.124412
450.0000	0.125263
449.5000	0.126039
449.0000	0.126268
448.5000	0.126115
448.0000	0.125707
447.5000	0.124718
447.0000	0.123801
446.5000	0.122125
446.0000	0.12082
445.5000	0.11863
445.0000	0.117043
444.5000	0.114482
444.0000	0.112643
443.5000	0.109867
443.0000	0.107964
442.5000	0.10506
442.0000	0.103102
441.5000	0.10019
441.0000	0.0982659
440.5000	0.0954484
440.0000	0.0936288
439.5000	0.0909985
439.0000	0.0893379
438.5000	0.087054
438.0000	0.0856137
437.5000	0.0836982
437.0000	0.0825479
436.5000	0.081113
436.0000	0.0803109
435.5000	0.0794026
435.0000	0.0789859
434.5000	0.0787113
434.0000	0.0787068
433.5000	0.0789832
433.0000	0.0794094
432.5000	0.080306
432.0000	0.0810933
431.5000	0.0825295
431.0000	0.0836324
430.5000	0.0855725
430.0000	0.0869413
429.5000	0.0891841
429.0000	0.0907562
428.5000	0.0931781
428.0000	0.0947818
427.5000	0.0972099
427.0000	0.0987921
426.5000	0.101037
426.0000	0.102432
425.5000	0.104346
425.0000	0.105476
424.5000	0.106936
424.0000	0.107703
423.5000	0.108579
423.0000	0.108929
422.5000	0.109179
422.0000	0.10917
421.5000	0.10878
421.0000	0.108306
420.5000	0.10728
420.0000	0.106403
419.5000	0.104823
419.0000	0.103637
418.5000	0.101647
418.0000	0.100167
417.5000	0.0977997
417.0000	0.0961225
416.5000	0.0935519
416.0000	0.0917815
415.5000	0.0891268
415.0000	0.0873286
414.5000	0.084628
414.0000	0.0829025
413.5000	0.0803599
413.0000	0.078724
412.5000	0.0763313
412.0000	0.0748091
411.5000	0.0727137
411.0000	0.0713923
410.5000	0.0695936
410.0000	0.0685076
409.5000	0.0670072
409.0000	0.0660957
408.5000	0.0649662
408.0000	0.0643311
407.5000	0.0635481
407.0000	0.0631028
406.5000	0.0625987
406.0000	0.0624071
405.5000	0.0622201
405.0000	0.0621336
404.5000	0.0620747
404.0000	0.0621097
403.5000	0.0621774
403.0000	0.0622138
402.5000	0.0623689
402.0000	0.0624474
401.5000	0.0625016
401.0000	0.0625045
400.5000	0.0625036
400.0000	0.0624292
399.5000	0.0622023
399.0000	0.0620143
398.5000	0.0616773
398.0000	0.0613449
397.5000	0.0607802
397.0000	0.0603446
396.5000	0.0596442
396.0000	0.059088
395.5000	0.0581558
395.0000	0.0575076
394.5000	0.0564404
394.0000	0.0556897
393.5000	0.0545396
393.0000	0.0537424
392.5000	0.052481
392.0000	0.0517138
391.5000	0.0505788
391.0000	0.0497916
390.5000	0.0486428
390.0000	0.0479107
389.5000	0.0468448
389.0000	0.0462052
388.5000	0.0453446
388.0000	0.0447925
387.5000	0.0440433
387.0000	0.0436294
386.5000	0.0431112
386.0000	0.0427966
385.5000	0.042276
385.0000	0.0420025
384.5000	0.0416946
384.0000	0.0415329
383.5000	0.0413455
383.0000	0.0412677
382.5000	0.0411323
382.0000	0.0410156
381.5000	0.0409911
381.0000	0.040956
380.5000	0.040918
380.0000	0.0408637
379.5000	0.0408406
379.0000	0.0408676
378.5000	0.0408785
378.0000	0.0408392
377.5000	0.0408258
377.0000	0.0407545
376.5000	0.0407294
376.0000	0.0406537
375.5000	0.0406393
375.0000	0.0405509
374.5000	0.0405091
374.0000	0.0404399
373.5000	0.040382
373.0000	0.0403633
372.5000	0.040286
372.0000	0.0402543
371.5000	0.0402129
371.0000	0.0401734
370.5000	0.0401759
370.0000	0.040175
369.5000	0.0402128
369.0000	0.0402657
368.5000	0.0403209
368.0000	0.0404264
367.5000	0.0405774
367.0000	0.0407019
366.5000	0.0407952
366.0000	0.040912
365.5000	0.0411196
365.0000	0.041313
364.5000	0.0415464
364.0000	0.0417803
363.5000	0.0421034
363.0000	0.0423717
362.5000	0.0426615
362.0000	0.0428918
361.5000	0.0432674
361.0000	0.0434994
360.5000	0.0438409
360.0000	0.0441217
359.5000	0.0445003
359.0000	0.0447468
358.5000	0.0450905
358.0000	0.0453646
357.5000	0.0457164
357.0000	0.045947
356.5000	0.0461739
356.0000	0.0463801
355.5000	0.0466267
355.0000	0.0468971
354.5000	0.0471597
354.0000	0.0473517
353.5000	0.0476601
353.0000	0.0478314
352.5000	0.0481268
352.0000	0.0483614
351.5000	0.0486264
351.0000	0.0487306
350.5000	0.048997
350.0000	0.0492007
349.5000	0.0494592
349.0000	0.0496918
348.5000	0.0498952
348.0000	0.0500652
347.5000	0.0504082
347.0000	0.050533
346.5000	0.050772
346.0000	0.0510088
345.5000	0.0511925
345.0000	0.0513871
344.5000	0.0517317
344.0000	0.0518782
343.5000	0.0521948
343.0000	0.0524133
342.5000	0.0527272
342.0000	0.0529085
341.5000	0.0531675
341.0000	0.0534076
340.5000	0.0537907
340.0000	0.0549615
339.5000	0.0554279
339.0000	0.0557552
338.5000	0.0561252
338.0000	0.0564507
337.5000	0.0569466
337.0000	0.0572652
336.5000	0.057926
336.0000	0.0583391
335.5000	0.059016
335.0000	0.0595326
334.5000	0.0603209
334.0000	0.0608978
333.5000	0.0617794
333.0000	0.0623897
332.5000	0.0633241
332.0000	0.0640655
331.5000	0.0651695
331.0000	0.0659331
330.5000	0.0672268
330.0000	0.0680432
329.5000	0.069453
329.0000	0.0705165
328.5000	0.0722061
328.0000	0.073359
327.5000	0.0752016
327.0000	0.0764705
326.5000	0.0785597
326.0000	0.0800073
325.5000	0.0822551
325.0000	0.0838817
324.5000	0.0864207
324.0000	0.0882184
323.5000	0.0909938
323.0000	0.0930476
322.5000	0.0961889
322.0000	0.098419
321.5000	0.102001
321.0000	0.104506
320.5000	0.108555
320.0000	0.111394
319.5000	0.115877
319.0000	0.118981
318.5000	0.123928
318.0000	0.12746
317.5000	0.132955
317.0000	0.136841
316.5000	0.142987
316.0000	0.147257
315.5000	0.153937
315.0000	0.158676
314.5000	0.166063
314.0000	0.171194
313.5000	0.17931
313.0000	0.184952
312.5000	0.193936
312.0000	0.200269
311.5000	0.210112
311.0000	0.217018
310.5000	0.227852
310.0000	0.235332
309.5000	0.247121
309.0000	0.255364
308.5000	0.268364
308.0000	0.277379
307.5000	0.291522
307.0000	0.301358
306.5000	0.316721
306.0000	0.327389
305.5000	0.344039
305.0000	0.355592
304.5000	0.37356
304.0000	0.386112
303.5000	0.405712
303.0000	0.419198
302.5000	0.440186
302.0000	0.454663
301.5000	0.477239
301.0000	0.49274
300.5000	0.516856
300.0000	0.533497

##### Extended Information
[コメント情報]
試料名
コメント
測定者
所属
会社	関西大学　化学生命工学部

[データ情報]
作成日時	2014/06/04 21:43

データタイプ	等間隔データ
横軸	Wavelength [nm]
縦軸	Abs
スタート	700 nm
エンド	300 nm
データ間隔	0.5 nm
データ数	801     

[測定情報]
装置名	V-670
機種名	V-670
シリアル番号	B118261154

付属品名	USE-753
付属品シリアルNo.	B118261154
  セル長	0.1 mm

測定日時	2014/06/04 21:43

測光モード	Abs
測定範囲	700 - 300 nm
データ取込間隔	0.5 nm
UV/Vis バンド幅	1.0 nm
NIR バンド幅	8.0 nm
レスポンス	Medium
走査速度	400 nm/min
光源切換	340 nm
回折格子切換	850 nm
光源	D2/WI
フィルタ切換	ステップ
補正	ベースライン

