TITLE	
DATA TYPE	ULTRAVIOLET SPECTRUM
ORIGIN	JASCO
OWNER	
DATE	14/05/05
TIME	21:32:16
SPECTROMETER/DATA SYSTEM	
LOCALE	1041
RESOLUTION	
DELTAX	-0.5
XUNITS	NANOMETERS
YUNITS	ABSORBANCE
FIRSTX	  700.0000
LASTX	  300.0000
NPOINTS	     801
FIRSTY	     0.00498
MAXY	     1.02912
MINY	     0.00437
XYDATA
700.0000	0.00497844
699.5000	0.00497358
699.0000	0.00496892
698.5000	0.00499595
698.0000	0.00500135
697.5000	0.00498947
697.0000	0.0049837
696.5000	0.00496603
696.0000	0.00495995
695.5000	0.00493494
695.0000	0.00489916
694.5000	0.00486842
694.0000	0.00483928
693.5000	0.00482047
693.0000	0.00480729
692.5000	0.00478145
692.0000	0.00476064
691.5000	0.00475433
691.0000	0.00473747
690.5000	0.00472826
690.0000	0.00470484
689.5000	0.0046704
689.0000	0.00465476
688.5000	0.0046413
688.0000	0.00462641
687.5000	0.00459705
687.0000	0.00457974
686.5000	0.00458723
686.0000	0.00456947
685.5000	0.00455401
685.0000	0.00454369
684.5000	0.00450965
684.0000	0.00450696
683.5000	0.00451881
683.0000	0.00453527
682.5000	0.00453602
682.0000	0.00452557
681.5000	0.00451439
681.0000	0.00450191
680.5000	0.00450669
680.0000	0.00448006
679.5000	0.00449406
679.0000	0.00448419
678.5000	0.00448107
678.0000	0.00449962
677.5000	0.00448355
677.0000	0.00448057
676.5000	0.00444332
676.0000	0.00443247
675.5000	0.00445815
675.0000	0.00446522
674.5000	0.00446159
674.0000	0.00445806
673.5000	0.00445405
673.0000	0.00444547
672.5000	0.00443271
672.0000	0.00443402
671.5000	0.00442425
671.0000	0.00442919
670.5000	0.00443994
670.0000	0.00443059
669.5000	0.00444485
669.0000	0.00443119
668.5000	0.00444211
668.0000	0.00443992
667.5000	0.0044435
667.0000	0.00443145
666.5000	0.00444219
666.0000	0.0044425
665.5000	0.00443998
665.0000	0.00442005
664.5000	0.00439146
664.0000	0.00438979
663.5000	0.00439159
663.0000	0.00437933
662.5000	0.00438961
662.0000	0.00437256
661.5000	0.00438907
661.0000	0.00438474
660.5000	0.0044109
660.0000	0.00438647
659.5000	0.00440636
659.0000	0.0044294
658.5000	0.00445368
658.0000	0.00444602
657.5000	0.00444845
657.0000	0.00445837
656.5000	0.00447347
656.0000	0.00448458
655.5000	0.00449233
655.0000	0.00451235
654.5000	0.00451931
654.0000	0.00451157
653.5000	0.00452427
653.0000	0.00454682
652.5000	0.00454041
652.0000	0.00453972
651.5000	0.00453355
651.0000	0.00455711
650.5000	0.00457616
650.0000	0.00458461
649.5000	0.00458986
649.0000	0.00461158
648.5000	0.00462808
648.0000	0.00463699
647.5000	0.00469194
647.0000	0.00470727
646.5000	0.00469995
646.0000	0.00473066
645.5000	0.00476453
645.0000	0.00481453
644.5000	0.00484309
644.0000	0.00486246
643.5000	0.00490351
643.0000	0.00492047
642.5000	0.00495152
642.0000	0.0049749
641.5000	0.00499683
641.0000	0.00498673
640.5000	0.00503308
640.0000	0.00504587
639.5000	0.00505921
639.0000	0.00507222
638.5000	0.00507107
638.0000	0.00508552
637.5000	0.00509721
637.0000	0.0051092
636.5000	0.00513405
636.0000	0.00512759
635.5000	0.00513544
635.0000	0.00516272
634.5000	0.00520667
634.0000	0.00523165
633.5000	0.00527862
633.0000	0.00531159
632.5000	0.00534033
632.0000	0.00536972
631.5000	0.00540373
631.0000	0.00544903
630.5000	0.00551653
630.0000	0.00551726
629.5000	0.00558178
629.0000	0.00561834
628.5000	0.00568976
628.0000	0.00571233
627.5000	0.00574375
627.0000	0.00577111
626.5000	0.00580499
626.0000	0.00584232
625.5000	0.0058955
625.0000	0.00593765
624.5000	0.00597059
624.0000	0.00597442
623.5000	0.00604839
623.0000	0.00609202
622.5000	0.00614789
622.0000	0.00616753
621.5000	0.00623489
621.0000	0.00629517
620.5000	0.00635503
620.0000	0.00640174
619.5000	0.00646041
619.0000	0.00651269
618.5000	0.00659615
618.0000	0.00663045
617.5000	0.00669494
617.0000	0.00674191
616.5000	0.00680787
616.0000	0.00686988
615.5000	0.00692915
615.0000	0.00700029
614.5000	0.00707675
614.0000	0.00714729
613.5000	0.00723696
613.0000	0.00729574
612.5000	0.00737596
612.0000	0.00740797
611.5000	0.00750516
611.0000	0.00758129
610.5000	0.00767073
610.0000	0.00770939
609.5000	0.0077815
609.0000	0.00783451
608.5000	0.00789111
608.0000	0.00792437
607.5000	0.00800448
607.0000	0.00804023
606.5000	0.00813576
606.0000	0.00819098
605.5000	0.00830243
605.0000	0.0083795
604.5000	0.00847677
604.0000	0.0085437
603.5000	0.00866338
603.0000	0.00874219
602.5000	0.00887676
602.0000	0.00897565
601.5000	0.00910021
601.0000	0.00917833
600.5000	0.00931154
600.0000	0.00914298
599.5000	0.00923489
599.0000	0.00930553
598.5000	0.00943402
598.0000	0.00951064
597.5000	0.0096377
597.0000	0.00972779
596.5000	0.00985061
596.0000	0.00994932
595.5000	0.0100733
595.0000	0.0101483
594.5000	0.0102654
594.0000	0.0103565
593.5000	0.0105041
593.0000	0.0105903
592.5000	0.0107576
592.0000	0.0108478
591.5000	0.0109986
591.0000	0.0111144
590.5000	0.0112632
590.0000	0.0113713
589.5000	0.0115183
589.0000	0.0116344
588.5000	0.0118009
588.0000	0.011912
587.5000	0.0121084
587.0000	0.0122131
586.5000	0.0124189
586.0000	0.0125338
585.5000	0.0127157
585.0000	0.0128482
584.5000	0.0130128
584.0000	0.0131483
583.5000	0.0133574
583.0000	0.0134787
582.5000	0.0136705
582.0000	0.0138042
581.5000	0.0140117
581.0000	0.0141435
580.5000	0.0143574
580.0000	0.0144928
579.5000	0.0147223
579.0000	0.0148742
578.5000	0.0150825
578.0000	0.0152397
577.5000	0.0154776
577.0000	0.015616
576.5000	0.0158562
576.0000	0.0160236
575.5000	0.0162356
575.0000	0.0164059
574.5000	0.0166417
574.0000	0.0168047
573.5000	0.0170395
573.0000	0.0171986
572.5000	0.0174452
572.0000	0.0176458
571.5000	0.0178885
571.0000	0.0180645
570.5000	0.0183378
570.0000	0.0185337
569.5000	0.0188225
569.0000	0.0190208
568.5000	0.0193136
568.0000	0.0194989
567.5000	0.0197973
567.0000	0.0200039
566.5000	0.0203
566.0000	0.020506
565.5000	0.0208023
565.0000	0.0210235
564.5000	0.0213412
564.0000	0.0215438
563.5000	0.0218459
563.0000	0.0220592
562.5000	0.0223479
562.0000	0.0225712
561.5000	0.0228947
561.0000	0.0231358
560.5000	0.0234489
560.0000	0.0236885
559.5000	0.024019
559.0000	0.0242429
558.5000	0.0245953
558.0000	0.0248144
557.5000	0.0251409
557.0000	0.0253692
556.5000	0.0257053
556.0000	0.0259393
555.5000	0.0262794
555.0000	0.0264907
554.5000	0.0268312
554.0000	0.0270469
553.5000	0.0273763
553.0000	0.0275997
552.5000	0.0279253
552.0000	0.0281479
551.5000	0.0284346
551.0000	0.0286539
550.5000	0.0289551
550.0000	0.0291672
549.5000	0.0294686
549.0000	0.0296697
548.5000	0.0299735
548.0000	0.0301476
547.5000	0.0304284
547.0000	0.0305971
546.5000	0.0308525
546.0000	0.0310073
545.5000	0.0312443
545.0000	0.0314185
544.5000	0.0316328
544.0000	0.0317777
543.5000	0.0319757
543.0000	0.0321004
542.5000	0.0322834
542.0000	0.0323953
541.5000	0.032576
541.0000	0.0326583
540.5000	0.0328174
540.0000	0.032909
539.5000	0.0330179
539.0000	0.0330833
538.5000	0.0331669
538.0000	0.0332339
537.5000	0.0333238
537.0000	0.0333596
536.5000	0.033432
536.0000	0.0334538
535.5000	0.0334838
535.0000	0.0334724
534.5000	0.0334816
534.0000	0.0334737
533.5000	0.0334497
533.0000	0.0334114
532.5000	0.0333668
532.0000	0.0333446
531.5000	0.0332785
531.0000	0.0331876
530.5000	0.0330819
530.0000	0.0330172
529.5000	0.032901
529.0000	0.0328128
528.5000	0.0326707
528.0000	0.0325913
527.5000	0.0324382
527.0000	0.0323365
526.5000	0.0321785
526.0000	0.0320844
525.5000	0.0319068
525.0000	0.0317787
524.5000	0.0315878
524.0000	0.0314723
523.5000	0.0312794
523.0000	0.0311345
522.5000	0.0309326
522.0000	0.0307824
521.5000	0.0305516
521.0000	0.0303942
520.5000	0.0301319
520.0000	0.0298954
519.5000	0.0296496
519.0000	0.0295006
518.5000	0.02928
518.0000	0.0291222
517.5000	0.0288782
517.0000	0.0287361
516.5000	0.0285057
516.0000	0.0283329
515.5000	0.0280526
515.0000	0.0278977
514.5000	0.0276345
514.0000	0.0274668
513.5000	0.0272262
513.0000	0.0270466
512.5000	0.0267925
512.0000	0.0266319
511.5000	0.0263607
511.0000	0.0262015
510.5000	0.0259464
510.0000	0.0257798
509.5000	0.025531
509.0000	0.0254042
508.5000	0.0251723
508.0000	0.0250276
507.5000	0.0247619
507.0000	0.02461
506.5000	0.0243981
506.0000	0.0242544
505.5000	0.0240046
505.0000	0.0238561
504.5000	0.0236428
504.0000	0.0234918
503.5000	0.0232875
503.0000	0.0231494
502.5000	0.0229436
502.0000	0.0228141
501.5000	0.0226045
501.0000	0.0224739
500.5000	0.0223133
500.0000	0.0221817
499.5000	0.0219724
499.0000	0.0218611
498.5000	0.0216769
498.0000	0.0215789
497.5000	0.0214262
497.0000	0.0212876
496.5000	0.0211209
496.0000	0.0210381
495.5000	0.0208456
495.0000	0.020735
494.5000	0.0205989
494.0000	0.0204939
493.5000	0.0203615
493.0000	0.0202625
492.5000	0.0201368
492.0000	0.0200556
491.5000	0.0199135
491.0000	0.0198081
490.5000	0.0197255
490.0000	0.0196457
489.5000	0.0195113
489.0000	0.0194614
488.5000	0.0193823
488.0000	0.0193059
487.5000	0.0192527
487.0000	0.0191896
486.5000	0.0191536
486.0000	0.0191205
485.5000	0.0190608
485.0000	0.0190259
484.5000	0.01897
484.0000	0.0189548
483.5000	0.0189476
483.0000	0.0189145
482.5000	0.0189184
482.0000	0.0189091
481.5000	0.0189104
481.0000	0.0188875
480.5000	0.01891
480.0000	0.0189337
479.5000	0.0189982
479.0000	0.0190299
478.5000	0.0191054
478.0000	0.0191607
477.5000	0.0192358
477.0000	0.0193155
476.5000	0.0194701
476.0000	0.0195622
475.5000	0.0197454
475.0000	0.0199046
474.5000	0.0201463
474.0000	0.0203531
473.5000	0.0206422
473.0000	0.0208624
472.5000	0.0212346
472.0000	0.0215204
471.5000	0.0220038
471.0000	0.0223462
470.5000	0.0228858
470.0000	0.0232846
469.5000	0.0239677
469.0000	0.0244705
468.5000	0.0252627
468.0000	0.0258823
467.5000	0.0268648
467.0000	0.0276082
466.5000	0.0288064
466.0000	0.0297083
465.5000	0.0311756
465.0000	0.0322238
464.5000	0.0339814
464.0000	0.0352459
463.5000	0.0373144
463.0000	0.0388311
462.5000	0.0412588
462.0000	0.0430308
461.5000	0.0458718
461.0000	0.0478854
460.5000	0.0511056
460.0000	0.0534302
459.5000	0.0571187
459.0000	0.0596906
458.5000	0.0637502
458.0000	0.0665685
457.5000	0.0709248
457.0000	0.0739388
456.5000	0.078486
456.0000	0.0815452
455.5000	0.0860838
455.0000	0.0890449
454.5000	0.0933488
454.0000	0.0961184
453.5000	0.0999559
453.0000	0.102328
452.5000	0.105498
452.0000	0.107347
451.5000	0.109733
451.0000	0.111025
450.5000	0.112471
450.0000	0.113151
449.5000	0.11373
449.0000	0.113854
448.5000	0.113628
448.0000	0.113246
447.5000	0.112308
447.0000	0.1115
446.5000	0.109992
446.0000	0.108877
445.5000	0.107002
445.0000	0.105611
444.5000	0.103407
444.0000	0.101898
443.5000	0.0995314
443.0000	0.0979389
442.5000	0.0954675
442.0000	0.0938493
441.5000	0.091426
441.0000	0.0898258
440.5000	0.0874699
440.0000	0.0859932
439.5000	0.0838605
439.0000	0.0825407
438.5000	0.080662
438.0000	0.0795405
437.5000	0.0780226
437.0000	0.0771665
436.5000	0.0760533
436.0000	0.0754809
435.5000	0.074843
435.0000	0.0746104
434.5000	0.07449
434.0000	0.0746277
433.5000	0.0750549
433.0000	0.0754995
432.5000	0.0763978
432.0000	0.0772067
431.5000	0.0786134
431.0000	0.0796834
430.5000	0.0814661
430.0000	0.0827573
429.5000	0.0848536
429.0000	0.0862931
428.5000	0.0884898
428.0000	0.0899539
427.5000	0.0921145
427.0000	0.0934758
426.5000	0.0954807
426.0000	0.0967067
425.5000	0.0983327
425.0000	0.0992884
424.5000	0.100499
424.0000	0.101155
423.5000	0.101878
423.0000	0.102162
422.5000	0.102265
422.0000	0.102166
421.5000	0.101782
421.0000	0.10132
420.5000	0.100407
420.0000	0.0999072
419.5000	0.0985127
419.0000	0.0974572
418.5000	0.0957092
418.0000	0.0944625
417.5000	0.0924707
417.0000	0.0910474
416.5000	0.0888407
416.0000	0.0873507
415.5000	0.0850745
415.0000	0.0835691
414.5000	0.081363
414.0000	0.0799079
413.5000	0.0778153
413.0000	0.0764932
412.5000	0.0745623
412.0000	0.0733383
411.5000	0.0716635
411.0000	0.0706075
410.5000	0.0691366
410.0000	0.0682527
409.5000	0.0671232
409.0000	0.0664677
408.5000	0.0655794
408.0000	0.0650967
407.5000	0.0645214
407.0000	0.0642254
406.5000	0.063932
406.0000	0.0638205
405.5000	0.0637389
405.0000	0.0637065
404.5000	0.0637474
404.0000	0.063813
403.5000	0.0639945
403.0000	0.0641319
402.5000	0.0643405
402.0000	0.0644662
401.5000	0.0646518
401.0000	0.064778
400.5000	0.0648316
400.0000	0.0648039
399.5000	0.0646956
399.0000	0.0646278
398.5000	0.0644071
398.0000	0.064209
397.5000	0.0638668
397.0000	0.0635779
396.5000	0.0629894
396.0000	0.0625674
395.5000	0.0618704
395.0000	0.0613866
394.5000	0.060559
394.0000	0.0600277
393.5000	0.0592073
393.0000	0.0586656
392.5000	0.0577375
392.0000	0.0571535
391.5000	0.0563316
391.0000	0.0557847
390.5000	0.0549678
390.0000	0.0544786
389.5000	0.0538097
389.0000	0.0533866
388.5000	0.0528097
388.0000	0.0524696
387.5000	0.0520466
387.0000	0.051795
386.5000	0.0514674
386.0000	0.05132
385.5000	0.0511407
385.0000	0.0510576
384.5000	0.0510197
384.0000	0.0510294
383.5000	0.051088
383.0000	0.0511654
382.5000	0.0513428
382.0000	0.0514904
381.5000	0.0517419
381.0000	0.0519391
380.5000	0.0522128
380.0000	0.0523897
379.5000	0.0527181
379.0000	0.0529361
378.5000	0.0532529
378.0000	0.0534659
377.5000	0.0538329
377.0000	0.0540596
376.5000	0.0543979
376.0000	0.0546466
375.5000	0.0550104
375.0000	0.0552426
374.5000	0.0555909
374.0000	0.055806
373.5000	0.0562666
373.0000	0.0565654
372.5000	0.057
372.0000	0.0572819
371.5000	0.0578338
371.0000	0.0581626
370.5000	0.0587043
370.0000	0.0593362
369.5000	0.0598557
369.0000	0.0603892
368.5000	0.0610578
368.0000	0.0615256
367.5000	0.0622335
367.0000	0.0627611
366.5000	0.0637016
366.0000	0.0643275
365.5000	0.0653084
365.0000	0.0659266
364.5000	0.0669572
364.0000	0.0677263
363.5000	0.0687465
363.0000	0.0694964
362.5000	0.0705348
362.0000	0.071335
361.5000	0.07247
361.0000	0.0732302
360.5000	0.0745009
360.0000	0.0752779
359.5000	0.0763073
359.0000	0.0770581
358.5000	0.0783176
358.0000	0.0791107
357.5000	0.0802209
357.0000	0.0810373
356.5000	0.0821545
356.0000	0.0828958
355.5000	0.0839619
355.0000	0.0847352
354.5000	0.0857641
354.0000	0.0864116
353.5000	0.0873513
353.0000	0.0880886
352.5000	0.0891382
352.0000	0.0896903
351.5000	0.0906196
351.0000	0.0912132
350.5000	0.0920855
350.0000	0.092683
349.5000	0.0936251
349.0000	0.0941429
348.5000	0.094971
348.0000	0.0955429
347.5000	0.0963829
347.0000	0.0969201
346.5000	0.0977813
346.0000	0.098291
345.5000	0.0991183
345.0000	0.0996746
344.5000	0.100484
344.0000	0.101074
343.5000	0.101912
343.0000	0.102436
342.5000	0.103355
342.0000	0.104085
341.5000	0.104956
341.0000	0.105618
340.5000	0.106519
340.0000	0.108502
339.5000	0.109457
339.0000	0.110161
338.5000	0.111165
338.0000	0.112023
337.5000	0.113257
337.0000	0.114173
336.5000	0.115529
336.0000	0.116483
335.5000	0.118106
335.0000	0.119215
334.5000	0.120998
334.0000	0.12226
333.5000	0.124317
333.0000	0.125726
332.5000	0.127962
332.0000	0.129553
331.5000	0.13191
331.0000	0.133652
330.5000	0.13641
330.0000	0.138351
329.5000	0.141394
329.0000	0.143522
328.5000	0.14695
328.0000	0.149359
327.5000	0.153122
327.0000	0.155749
326.5000	0.160007
326.0000	0.163027
325.5000	0.167783
325.0000	0.171078
324.5000	0.176468
324.0000	0.180128
323.5000	0.185972
323.0000	0.190049
322.5000	0.196547
322.0000	0.201132
321.5000	0.20841
321.0000	0.21353
320.5000	0.221658
320.0000	0.227342
319.5000	0.236241
319.0000	0.242445
318.5000	0.252456
318.0000	0.259312
317.5000	0.270215
317.0000	0.277848
316.5000	0.289845
316.0000	0.29829
315.5000	0.311428
315.0000	0.320579
314.5000	0.335047
314.0000	0.345136
313.5000	0.360954
313.0000	0.371924
312.5000	0.389192
312.0000	0.401194
311.5000	0.420034
311.0000	0.433192
310.5000	0.453819
310.0000	0.468246
309.5000	0.490751
309.0000	0.506422
308.5000	0.531029
308.0000	0.548006
307.5000	0.574561
307.0000	0.592961
306.5000	0.621948
306.0000	0.64207
305.5000	0.673553
305.0000	0.69537
304.5000	0.729304
304.0000	0.752785
303.5000	0.789334
303.0000	0.814506
302.5000	0.853893
302.0000	0.881089
301.5000	0.923509
301.0000	0.952617
300.5000	0.997974
300.0000	1.02912

##### Extended Information
[コメント情報]
試料名
コメント
測定者
所属
会社	関西大学　化学生命工学部

[データ情報]
作成日時	2014/05/05 21:32

データタイプ	等間隔データ
横軸	Wavelength [nm]
縦軸	Abs
スタート	700 nm
エンド	300 nm
データ間隔	0.5 nm
データ数	801     

[測定情報]
装置名	V-670
機種名	V-670
シリアル番号	B118261154

付属品名	USE-753
付属品シリアルNo.	B118261154
  セル長	0.1 mm

測定日時	2014/05/05 21:32

測光モード	Abs
測定範囲	700 - 300 nm
データ取込間隔	0.5 nm
UV/Vis バンド幅	1.0 nm
NIR バンド幅	8.0 nm
レスポンス	Medium
走査速度	400 nm/min
光源切換	340 nm
回折格子切換	850 nm
光源	D2/WI
フィルタ切換	ステップ
補正	ベースライン

