TITLE	
DATA TYPE	ULTRAVIOLET SPECTRUM
ORIGIN	JASCO
OWNER	
DATE	14/04/04
TIME	17:42:43
SPECTROMETER/DATA SYSTEM	
LOCALE	1041
RESOLUTION	
DELTAX	-0.5
XUNITS	NANOMETERS
YUNITS	ABSORBANCE
FIRSTX	  700.0000
LASTX	  300.0000
NPOINTS	     801
FIRSTY	     0.01513
MAXY	     0.12729
MINY	     0.01513
XYDATA
700.0000	0.015132
699.5000	0.0151734
699.0000	0.0151911
698.5000	0.0152434
698.0000	0.0152727
697.5000	0.0153189
697.0000	0.015357
696.5000	0.0154389
696.0000	0.0154994
695.5000	0.0155662
695.0000	0.0156261
694.5000	0.0157068
694.0000	0.0157592
693.5000	0.0158502
693.0000	0.0158836
692.5000	0.0159952
692.0000	0.016058
691.5000	0.0161819
691.0000	0.0162442
690.5000	0.0163126
690.0000	0.0163766
689.5000	0.0164798
689.0000	0.0165496
688.5000	0.0166598
688.0000	0.016717
687.5000	0.016801
687.0000	0.0168665
686.5000	0.0169709
686.0000	0.0170197
685.5000	0.017135
685.0000	0.0171866
684.5000	0.0173114
684.0000	0.0173993
683.5000	0.0175202
683.0000	0.0175873
682.5000	0.0176882
682.0000	0.0177956
681.5000	0.0179272
681.0000	0.0180335
680.5000	0.0181645
680.0000	0.0182757
679.5000	0.0184468
679.0000	0.0185386
678.5000	0.0187073
678.0000	0.0188057
677.5000	0.0189752
677.0000	0.0190934
676.5000	0.0192804
676.0000	0.0194061
675.5000	0.0195508
675.0000	0.0196897
674.5000	0.0198913
674.0000	0.0200331
673.5000	0.0202359
673.0000	0.0203425
672.5000	0.020509
672.0000	0.0206173
671.5000	0.020832
671.0000	0.0209501
670.5000	0.0211617
670.0000	0.021277
669.5000	0.0214946
669.0000	0.0216398
668.5000	0.0218427
668.0000	0.0219669
667.5000	0.0221538
667.0000	0.0222784
666.5000	0.0225157
666.0000	0.0226597
665.5000	0.0228715
665.0000	0.0230039
664.5000	0.0232029
664.0000	0.0233282
663.5000	0.0235485
663.0000	0.023677
662.5000	0.0238368
662.0000	0.023979
661.5000	0.0241903
661.0000	0.0243307
660.5000	0.0245178
660.0000	0.024617
659.5000	0.0248332
659.0000	0.0249644
658.5000	0.0251364
658.0000	0.0252835
657.5000	0.025469
657.0000	0.0255654
656.5000	0.0257209
656.0000	0.0258489
655.5000	0.0259905
655.0000	0.0260922
654.5000	0.0262451
654.0000	0.0263462
653.5000	0.0265123
653.0000	0.0265996
652.5000	0.026712
652.0000	0.0268035
651.5000	0.0269188
651.0000	0.0270137
650.5000	0.0271691
650.0000	0.0272681
649.5000	0.0274211
649.0000	0.027519
648.5000	0.0276306
648.0000	0.0277061
647.5000	0.0278147
647.0000	0.0278968
646.5000	0.0280152
646.0000	0.0281114
645.5000	0.0282325
645.0000	0.0283185
644.5000	0.0284307
644.0000	0.0284813
643.5000	0.0285809
643.0000	0.028659
642.5000	0.0287629
642.0000	0.0288335
641.5000	0.0289576
641.0000	0.0290255
640.5000	0.0291282
640.0000	0.0291958
639.5000	0.0292968
639.0000	0.0293534
638.5000	0.0294337
638.0000	0.0294723
637.5000	0.0295917
637.0000	0.0296615
636.5000	0.0297669
636.0000	0.0298374
635.5000	0.0299454
635.0000	0.0300175
634.5000	0.0301277
634.0000	0.0301812
633.5000	0.0302843
633.0000	0.0303606
632.5000	0.0305033
632.0000	0.0305796
631.5000	0.03071
631.0000	0.0308039
630.5000	0.0309128
630.0000	0.0309733
629.5000	0.0310599
629.0000	0.0311245
628.5000	0.0312127
628.0000	0.0312797
627.5000	0.0314016
627.0000	0.0314754
626.5000	0.0315636
626.0000	0.031622
625.5000	0.0317356
625.0000	0.0318059
624.5000	0.0318993
624.0000	0.0319825
623.5000	0.032109
623.0000	0.0322023
622.5000	0.0323186
622.0000	0.0324091
621.5000	0.0325183
621.0000	0.0326087
620.5000	0.0327595
620.0000	0.0328278
619.5000	0.0329338
619.0000	0.0330212
618.5000	0.0331445
618.0000	0.0332344
617.5000	0.0333247
617.0000	0.0333832
616.5000	0.0334903
616.0000	0.033571
615.5000	0.0336702
615.0000	0.0337454
614.5000	0.0338574
614.0000	0.0339272
613.5000	0.0340329
613.0000	0.0340998
612.5000	0.0341983
612.0000	0.0342624
611.5000	0.0343555
611.0000	0.0344313
610.5000	0.0345347
610.0000	0.0346028
609.5000	0.0347126
609.0000	0.0347746
608.5000	0.0348663
608.0000	0.0349161
607.5000	0.0350042
607.0000	0.0350785
606.5000	0.035192
606.0000	0.035237
605.5000	0.0353068
605.0000	0.0353665
604.5000	0.0354484
604.0000	0.0354924
603.5000	0.0355848
603.0000	0.0356303
602.5000	0.0357296
602.0000	0.0357795
601.5000	0.035853
601.0000	0.035913
600.5000	0.0359902
600.0000	0.0359898
599.5000	0.0360517
599.0000	0.0361141
598.5000	0.0361687
598.0000	0.0362117
597.5000	0.0362808
597.0000	0.0363363
596.5000	0.0364091
596.0000	0.0364605
595.5000	0.0365284
595.0000	0.036578
594.5000	0.0366509
594.0000	0.0366681
593.5000	0.0367191
593.0000	0.036771
592.5000	0.0368308
592.0000	0.0368705
591.5000	0.0369205
591.0000	0.0369438
590.5000	0.0370047
590.0000	0.0370236
589.5000	0.0370468
589.0000	0.0370806
588.5000	0.0371328
588.0000	0.0371578
587.5000	0.0372108
587.0000	0.0372228
586.5000	0.0372579
586.0000	0.0372784
585.5000	0.0373192
585.0000	0.0373548
584.5000	0.0373867
584.0000	0.0374142
583.5000	0.0374361
583.0000	0.037477
582.5000	0.0375159
582.0000	0.0375248
581.5000	0.0375457
581.0000	0.0375495
580.5000	0.0375851
580.0000	0.0376065
579.5000	0.0376364
579.0000	0.0376503
578.5000	0.037681
578.0000	0.0377095
577.5000	0.0377185
577.0000	0.0377536
576.5000	0.037794
576.0000	0.0378184
575.5000	0.0378243
575.0000	0.0378667
574.5000	0.0379071
574.0000	0.037921
573.5000	0.0379018
573.0000	0.0379161
572.5000	0.0379482
572.0000	0.0379479
571.5000	0.0379522
571.0000	0.0379773
570.5000	0.0380173
570.0000	0.0380006
569.5000	0.0380015
569.0000	0.0380138
568.5000	0.0380127
568.0000	0.0380197
567.5000	0.0380557
567.0000	0.0380867
566.5000	0.0381026
566.0000	0.0381039
565.5000	0.0381067
565.0000	0.0381394
564.5000	0.0381272
564.0000	0.0381079
563.5000	0.0381169
563.0000	0.0381273
562.5000	0.0381449
562.0000	0.0381383
561.5000	0.0381043
561.0000	0.0380944
560.5000	0.0380942
560.0000	0.0380903
559.5000	0.0380886
559.0000	0.0380725
558.5000	0.0380509
558.0000	0.0380344
557.5000	0.0380205
557.0000	0.0380077
556.5000	0.0379869
556.0000	0.0379722
555.5000	0.0379725
555.0000	0.0379555
554.5000	0.0379303
554.0000	0.0379265
553.5000	0.0378917
553.0000	0.0378674
552.5000	0.0378668
552.0000	0.0378562
551.5000	0.0378521
551.0000	0.0378509
550.5000	0.0378398
550.0000	0.0378492
549.5000	0.037812
549.0000	0.037813
548.5000	0.0378193
548.0000	0.0378261
547.5000	0.0378097
547.0000	0.0378081
546.5000	0.0377898
546.0000	0.0377839
545.5000	0.0377664
545.0000	0.0377453
544.5000	0.0377081
544.0000	0.0376984
543.5000	0.0376977
543.0000	0.037694
542.5000	0.0376701
542.0000	0.0376738
541.5000	0.0376787
541.0000	0.0376915
540.5000	0.0377147
540.0000	0.0377462
539.5000	0.0377753
539.0000	0.0378003
538.5000	0.0378561
538.0000	0.0379018
537.5000	0.0379538
537.0000	0.0379936
536.5000	0.0380556
536.0000	0.0381305
535.5000	0.0382079
535.0000	0.0382574
534.5000	0.0383423
534.0000	0.0383892
533.5000	0.0384703
533.0000	0.0385224
532.5000	0.038601
532.0000	0.038648
531.5000	0.0387693
531.0000	0.0388234
530.5000	0.038929
530.0000	0.0390333
529.5000	0.0391362
529.0000	0.0391884
528.5000	0.0393078
528.0000	0.0394228
527.5000	0.0395665
527.0000	0.0396578
526.5000	0.0398044
526.0000	0.0399319
525.5000	0.0401089
525.0000	0.0401985
524.5000	0.0403655
524.0000	0.0404815
523.5000	0.0406576
523.0000	0.0407841
522.5000	0.0409818
522.0000	0.0411206
521.5000	0.041309
521.0000	0.0414473
520.5000	0.0416766
520.0000	0.0417872
519.5000	0.0420251
519.0000	0.0421678
518.5000	0.0423942
518.0000	0.0425773
517.5000	0.0428299
517.0000	0.0430104
516.5000	0.0432617
516.0000	0.0434274
515.5000	0.0437307
515.0000	0.0439204
514.5000	0.0442207
514.0000	0.0444207
513.5000	0.0447456
513.0000	0.0449409
512.5000	0.0452855
512.0000	0.0455121
511.5000	0.045869
511.0000	0.0461124
510.5000	0.0464982
510.0000	0.0467554
509.5000	0.0471667
509.0000	0.0474474
508.5000	0.0478536
508.0000	0.0481303
507.5000	0.0485721
507.0000	0.0488739
506.5000	0.0493286
506.0000	0.0496425
505.5000	0.0501613
505.0000	0.0504929
504.5000	0.0510145
504.0000	0.0513756
503.5000	0.0519558
503.0000	0.0523323
502.5000	0.0529108
502.0000	0.0533095
501.5000	0.0539287
501.0000	0.0543586
500.5000	0.0550256
500.0000	0.0554577
499.5000	0.0561242
499.0000	0.0565333
498.5000	0.0572104
498.0000	0.0576704
497.5000	0.0583657
497.0000	0.0588243
496.5000	0.0595279
496.0000	0.0600249
495.5000	0.0607575
495.0000	0.06125
494.5000	0.0619708
494.0000	0.0624553
493.5000	0.0631852
493.0000	0.0636902
492.5000	0.0644717
492.0000	0.0649714
491.5000	0.0657204
491.0000	0.0662069
490.5000	0.0669293
490.0000	0.0674096
489.5000	0.068152
489.0000	0.0686197
488.5000	0.0693218
488.0000	0.0697911
487.5000	0.0705152
487.0000	0.070986
486.5000	0.0716663
486.0000	0.0721009
485.5000	0.0727807
485.0000	0.0732264
484.5000	0.0738774
484.0000	0.0742929
483.5000	0.0749336
483.0000	0.0753221
482.5000	0.0759385
482.0000	0.0763217
481.5000	0.0769017
481.0000	0.077279
480.5000	0.0778377
480.0000	0.0781937
479.5000	0.0787454
479.0000	0.0790891
478.5000	0.0795843
478.0000	0.0799063
477.5000	0.0804094
477.0000	0.0807248
476.5000	0.0812206
476.0000	0.0815094
475.5000	0.0819648
475.0000	0.0822734
474.5000	0.0826902
474.0000	0.0829561
473.5000	0.0833653
473.0000	0.0836414
472.5000	0.0840507
472.0000	0.0843114
471.5000	0.0847338
471.0000	0.084997
470.5000	0.0854091
470.0000	0.0856644
469.5000	0.086072
469.0000	0.0863424
468.5000	0.0867426
468.0000	0.0870082
467.5000	0.0874639
467.0000	0.0877763
466.5000	0.0881961
466.0000	0.0884948
465.5000	0.0889781
465.0000	0.0893054
464.5000	0.0897922
464.0000	0.0901124
463.5000	0.0906424
463.0000	0.0910517
462.5000	0.0916606
462.0000	0.0920668
461.5000	0.0927263
461.0000	0.0931939
460.5000	0.0938701
460.0000	0.0943677
459.5000	0.0951495
459.0000	0.0957104
458.5000	0.0965698
458.0000	0.0971386
457.5000	0.0980545
457.0000	0.0987045
456.5000	0.0996814
456.0000	0.100375
455.5000	0.101431
455.0000	0.10218
454.5000	0.103312
454.0000	0.104109
453.5000	0.105314
453.0000	0.106139
452.5000	0.107375
452.0000	0.108218
451.5000	0.109525
451.0000	0.110433
450.5000	0.111755
450.0000	0.112632
449.5000	0.113949
449.0000	0.114824
448.5000	0.11611
448.0000	0.116977
447.5000	0.118224
447.0000	0.119039
446.5000	0.120219
446.0000	0.120962
445.5000	0.122042
445.0000	0.12275
444.5000	0.123693
444.0000	0.124264
443.5000	0.125063
443.0000	0.12551
442.5000	0.126126
442.0000	0.126466
441.5000	0.126844
441.0000	0.127033
440.5000	0.127214
440.0000	0.127289
439.5000	0.127239
439.0000	0.127139
438.5000	0.126898
438.0000	0.126683
437.5000	0.126246
437.0000	0.125858
436.5000	0.125254
436.0000	0.124802
435.5000	0.124043
435.0000	0.123496
434.5000	0.122644
434.0000	0.122048
433.5000	0.121068
433.0000	0.120396
432.5000	0.119413
432.0000	0.118745
431.5000	0.117728
431.0000	0.117017
430.5000	0.116031
430.0000	0.115379
429.5000	0.114398
429.0000	0.113762
428.5000	0.112824
428.0000	0.112215
427.5000	0.111328
427.0000	0.110782
426.5000	0.109973
426.0000	0.109474
425.5000	0.10867
425.0000	0.10818
424.5000	0.107499
424.0000	0.107041
423.5000	0.106332
423.0000	0.105828
422.5000	0.105135
422.0000	0.104666
421.5000	0.103965
421.0000	0.103468
420.5000	0.10275
420.0000	0.102045
419.5000	0.10136
419.0000	0.10083
418.5000	0.0999742
418.0000	0.0994211
417.5000	0.0985244
417.0000	0.097914
416.5000	0.0969584
416.0000	0.096272
415.5000	0.0952196
415.0000	0.0945659
414.5000	0.093488
414.0000	0.0927249
413.5000	0.0915332
413.0000	0.0906934
412.5000	0.0894653
412.0000	0.0886027
411.5000	0.0873509
411.0000	0.0865078
410.5000	0.085184
410.0000	0.0842821
409.5000	0.0829671
409.0000	0.082092
408.5000	0.0807396
408.0000	0.0798494
407.5000	0.0785352
407.0000	0.0777092
406.5000	0.0764243
406.0000	0.0756035
405.5000	0.0743749
405.0000	0.0735484
404.5000	0.0723798
404.0000	0.0716014
403.5000	0.0704895
403.0000	0.069782
402.5000	0.0687455
402.0000	0.0680565
401.5000	0.0670803
401.0000	0.0664461
400.5000	0.0654987
400.0000	0.0648947
399.5000	0.0640177
399.0000	0.0634566
398.5000	0.0626654
398.0000	0.0621047
397.5000	0.0612864
397.0000	0.060813
396.5000	0.0600902
396.0000	0.0596453
395.5000	0.058951
395.0000	0.0585318
394.5000	0.0579193
394.0000	0.057512
393.5000	0.0568549
393.0000	0.0564641
392.5000	0.0559123
392.0000	0.0555123
391.5000	0.0549677
391.0000	0.0546199
390.5000	0.0540841
390.0000	0.0537303
389.5000	0.0532226
389.0000	0.0529006
388.5000	0.0524037
388.0000	0.0520625
387.5000	0.0516149
387.0000	0.0513377
386.5000	0.050875
386.0000	0.0505791
385.5000	0.0501894
385.0000	0.0499264
384.5000	0.0495195
384.0000	0.0492647
383.5000	0.0489129
383.0000	0.0486401
382.5000	0.0482895
382.0000	0.0480537
381.5000	0.0476878
381.0000	0.0474063
380.5000	0.0470568
380.0000	0.0468545
379.5000	0.0464925
379.0000	0.0462715
378.5000	0.0459506
378.0000	0.0457716
377.5000	0.0454664
377.0000	0.0452489
376.5000	0.0449606
376.0000	0.0447817
375.5000	0.0444841
375.0000	0.0442871
374.5000	0.0440613
374.0000	0.0439041
373.5000	0.0436426
373.0000	0.0434654
372.5000	0.0432569
372.0000	0.0431234
371.5000	0.0428723
371.0000	0.0426868
370.5000	0.0424557
370.0000	0.0423002
369.5000	0.0421154
369.0000	0.0419784
368.5000	0.0417947
368.0000	0.0416793
367.5000	0.0414432
367.0000	0.0413871
366.5000	0.0412908
366.0000	0.0412082
365.5000	0.0411082
365.0000	0.0409743
364.5000	0.0408618
364.0000	0.0407328
363.5000	0.040607
363.0000	0.0406229
362.5000	0.0405697
362.0000	0.0405332
361.5000	0.0405288
361.0000	0.0405414
360.5000	0.0405321
360.0000	0.0405059
359.5000	0.0404897
359.0000	0.0405244
358.5000	0.0406794
358.0000	0.0407016
357.5000	0.0406891
357.0000	0.0407727
356.5000	0.0408853
356.0000	0.0409188
355.5000	0.0410473
355.0000	0.0411544
354.5000	0.0413592
354.0000	0.041495
353.5000	0.0416782
353.0000	0.0418152
352.5000	0.0420348
352.0000	0.0421563
351.5000	0.0424235
351.0000	0.0426628
350.5000	0.0429909
350.0000	0.0431624
349.5000	0.0434484
349.0000	0.0436077
348.5000	0.0438869
348.0000	0.0440815
347.5000	0.044342
347.0000	0.0445943
346.5000	0.0449492
346.0000	0.0451793
345.5000	0.0454498
345.0000	0.0456791
344.5000	0.0460261
344.0000	0.0462421
343.5000	0.0465382
343.0000	0.0468377
342.5000	0.04723
342.0000	0.0474413
341.5000	0.0477338
341.0000	0.04792
340.5000	0.0481749
340.0000	0.0491686
339.5000	0.0495299
339.0000	0.0497378
338.5000	0.0499821
338.0000	0.050039
337.5000	0.0502261
337.0000	0.0504259
336.5000	0.0505727
336.0000	0.0506929
335.5000	0.0507803
335.0000	0.0508264
334.5000	0.0508953
334.0000	0.0509589
333.5000	0.0509573
333.0000	0.05104
332.5000	0.0510606
332.0000	0.0510632
331.5000	0.0511008
331.0000	0.0511304
330.5000	0.0511423
330.0000	0.0512057
329.5000	0.0512694
329.0000	0.0513231
328.5000	0.0514436
328.0000	0.0514991
327.5000	0.0517651
327.0000	0.0518764
326.5000	0.0519928
326.0000	0.0520894
325.5000	0.0521916
325.0000	0.0523656
324.5000	0.0525426
324.0000	0.0526684
323.5000	0.0528228
323.0000	0.0528858
322.5000	0.0530284
322.0000	0.0531074
321.5000	0.0532666
321.0000	0.0532992
320.5000	0.0533942
320.0000	0.0533784
319.5000	0.0534309
319.0000	0.053494
318.5000	0.0534962
318.0000	0.0534356
317.5000	0.0534429
317.0000	0.0534436
316.5000	0.0534008
316.0000	0.0533236
315.5000	0.0532873
315.0000	0.0532249
314.5000	0.053112
314.0000	0.0529936
313.5000	0.0529039
313.0000	0.0528297
312.5000	0.0527528
312.0000	0.0526748
311.5000	0.0525446
311.0000	0.0523797
310.5000	0.0522842
310.0000	0.0521888
309.5000	0.0519689
309.0000	0.0518641
308.5000	0.05172
308.0000	0.0515555
307.5000	0.0514214
307.0000	0.0512904
306.5000	0.0510653
306.0000	0.050916
305.5000	0.0507645
305.0000	0.0506916
304.5000	0.0505895
304.0000	0.0504748
303.5000	0.0503045
303.0000	0.0501892
302.5000	0.0500018
302.0000	0.0498715
301.5000	0.0497383
301.0000	0.0496264
300.5000	0.049501
300.0000	0.0494471

##### Extended Information
[コメント情報]
試料名
コメント
測定者
所属
会社	関西大学　化学生命工学部

[データ情報]
作成日時	2014/04/04 17:42

データタイプ	等間隔データ
横軸	Wavelength [nm]
縦軸	Abs
スタート	700 nm
エンド	300 nm
データ間隔	0.5 nm
データ数	801     

[測定情報]
装置名	V-670
機種名	V-670
シリアル番号	B118261154

付属品名	USE-753
付属品シリアルNo.	B118261154
  セル長	0.1 mm

測定日時	2014/04/04 17:42

測光モード	Abs
測定範囲	700 - 300 nm
データ取込間隔	0.5 nm
UV/Vis バンド幅	1.0 nm
NIR バンド幅	8.0 nm
レスポンス	Medium
走査速度	400 nm/min
光源切換	340 nm
回折格子切換	850 nm
光源	D2/WI
フィルタ切換	ステップ
補正	ベースライン

