TITLE	
DATA TYPE	ULTRAVIOLET SPECTRUM
ORIGIN	JASCO
OWNER	
DATE	14/06/05
TIME	23:39:14
SPECTROMETER/DATA SYSTEM	
LOCALE	1041
RESOLUTION	
DELTAX	-0.5
XUNITS	NANOMETERS
YUNITS	ABSORBANCE
FIRSTX	  700.0000
LASTX	  300.0000
NPOINTS	     801
FIRSTY	     0.01603
MAXY	     0.87612
MINY	     0.01556
XYDATA
700.0000	0.0160288
699.5000	0.0160204
699.0000	0.0160244
698.5000	0.016001
698.0000	0.0159897
697.5000	0.015989
697.0000	0.0159842
696.5000	0.015977
696.0000	0.0159716
695.5000	0.0159734
695.0000	0.0159571
694.5000	0.015974
694.0000	0.0159642
693.5000	0.0159729
693.0000	0.0159483
692.5000	0.0159443
692.0000	0.0159451
691.5000	0.0159374
691.0000	0.0159304
690.5000	0.0159085
690.0000	0.0158965
689.5000	0.0158946
689.0000	0.0159034
688.5000	0.0158809
688.0000	0.015869
687.5000	0.0158628
687.0000	0.0158537
686.5000	0.0158356
686.0000	0.0158087
685.5000	0.0157842
685.0000	0.0157706
684.5000	0.0157656
684.0000	0.0157519
683.5000	0.0157474
683.0000	0.0157402
682.5000	0.0157209
682.0000	0.0156917
681.5000	0.0156237
681.0000	0.0155986
680.5000	0.0155914
680.0000	0.0155987
679.5000	0.0156062
679.0000	0.0155951
678.5000	0.0156094
678.0000	0.0156235
677.5000	0.0156041
677.0000	0.0155995
676.5000	0.0155629
676.0000	0.0155789
675.5000	0.0156
675.0000	0.0156353
674.5000	0.0156419
674.0000	0.0156525
673.5000	0.01565
673.0000	0.0156431
672.5000	0.0156716
672.0000	0.0156713
671.5000	0.0156721
671.0000	0.0156669
670.5000	0.0156819
670.0000	0.015713
669.5000	0.0157324
669.0000	0.0157549
668.5000	0.0157815
668.0000	0.0157862
667.5000	0.0157913
667.0000	0.0158083
666.5000	0.015813
666.0000	0.0158219
665.5000	0.0158314
665.0000	0.0158479
664.5000	0.0158668
664.0000	0.0158849
663.5000	0.0159306
663.0000	0.0159308
662.5000	0.0159638
662.0000	0.0159917
661.5000	0.0160364
661.0000	0.0160519
660.5000	0.0161004
660.0000	0.0161206
659.5000	0.016151
659.0000	0.0161943
658.5000	0.0162546
658.0000	0.0162968
657.5000	0.0163305
657.0000	0.016364
656.5000	0.0164275
656.0000	0.0164615
655.5000	0.0165035
655.0000	0.0165164
654.5000	0.0165614
654.0000	0.0165849
653.5000	0.0166607
653.0000	0.0167088
652.5000	0.0167478
652.0000	0.0167964
651.5000	0.0168444
651.0000	0.0169012
650.5000	0.0169638
650.0000	0.0169883
649.5000	0.0170287
649.0000	0.0170711
648.5000	0.0171542
648.0000	0.0172339
647.5000	0.0173187
647.0000	0.0173587
646.5000	0.0174754
646.0000	0.0175277
645.5000	0.0175983
645.0000	0.0176537
644.5000	0.0177594
644.0000	0.0178248
643.5000	0.0179587
643.0000	0.0180566
642.5000	0.0181672
642.0000	0.0182531
641.5000	0.0183401
641.0000	0.0184162
640.5000	0.0185192
640.0000	0.01857
639.5000	0.0186941
639.0000	0.018762
638.5000	0.0188715
638.0000	0.0189413
637.5000	0.019017
637.0000	0.019076
636.5000	0.0191801
636.0000	0.0192534
635.5000	0.0193601
635.0000	0.019445
634.5000	0.0195808
634.0000	0.019684
633.5000	0.0198078
633.0000	0.0199025
632.5000	0.020058
632.0000	0.0201611
631.5000	0.0202972
631.0000	0.020418
630.5000	0.0205705
630.0000	0.0206717
629.5000	0.0208357
629.0000	0.0209308
628.5000	0.0211039
628.0000	0.02121
627.5000	0.0213909
627.0000	0.0214921
626.5000	0.0216779
626.0000	0.0217943
625.5000	0.0219699
625.0000	0.0221244
624.5000	0.0223112
624.0000	0.0224502
623.5000	0.0226719
623.0000	0.0228012
622.5000	0.0230143
622.0000	0.0231643
621.5000	0.02335
621.0000	0.0234925
620.5000	0.0237075
620.0000	0.023845
619.5000	0.0240428
619.0000	0.0242011
618.5000	0.0244104
618.0000	0.0245852
617.5000	0.0247945
617.0000	0.0249456
616.5000	0.0252072
616.0000	0.0253939
615.5000	0.0256505
615.0000	0.0258246
614.5000	0.0260949
614.0000	0.026284
613.5000	0.0265672
613.0000	0.0267718
612.5000	0.0270612
612.0000	0.0272564
611.5000	0.0275355
611.0000	0.027719
610.5000	0.0280108
610.0000	0.0282008
609.5000	0.02849
609.0000	0.0287015
608.5000	0.0290161
608.0000	0.0292276
607.5000	0.0295357
607.0000	0.0297708
606.5000	0.0301083
606.0000	0.0303365
605.5000	0.0306798
605.0000	0.0309188
604.5000	0.0313044
604.0000	0.0315584
603.5000	0.0319251
603.0000	0.0321651
602.5000	0.0325561
602.0000	0.0328443
601.5000	0.0332661
601.0000	0.0335499
600.5000	0.0339512
600.0000	0.0341719
599.5000	0.0345653
599.0000	0.0348632
598.5000	0.0353145
598.0000	0.0356085
597.5000	0.0360749
597.0000	0.0363837
596.5000	0.0368545
596.0000	0.0371735
595.5000	0.0376718
595.0000	0.0380064
594.5000	0.0385426
594.0000	0.0388887
593.5000	0.039423
593.0000	0.0397909
592.5000	0.0403448
592.0000	0.0407225
591.5000	0.0412817
591.0000	0.0416524
590.5000	0.042234
590.0000	0.04263
589.5000	0.0432402
589.0000	0.0436724
588.5000	0.0443391
588.0000	0.0447616
587.5000	0.0454212
587.0000	0.0459024
586.5000	0.0465972
586.0000	0.0470611
585.5000	0.0477693
585.0000	0.0482546
584.5000	0.0490418
584.0000	0.0495678
583.5000	0.0503622
583.0000	0.0508933
582.5000	0.0517088
582.0000	0.0522687
581.5000	0.0531312
581.0000	0.0537273
580.5000	0.0546194
580.0000	0.0552359
579.5000	0.0561963
579.0000	0.0568219
578.5000	0.0578149
578.0000	0.0584756
577.5000	0.0594845
577.0000	0.0601822
576.5000	0.0612599
576.0000	0.061965
575.5000	0.0630884
575.0000	0.0638476
574.5000	0.0649718
574.0000	0.0657377
573.5000	0.0669052
573.0000	0.0677046
572.5000	0.0689566
572.0000	0.0697889
571.5000	0.0710687
571.0000	0.0719491
570.5000	0.0732579
570.0000	0.0741616
569.5000	0.0755407
569.0000	0.0764647
568.5000	0.0778838
568.0000	0.0788398
567.5000	0.0803327
567.0000	0.0813503
566.5000	0.0828769
566.0000	0.0838963
565.5000	0.0854618
565.0000	0.0865191
564.5000	0.0881227
564.0000	0.0892182
563.5000	0.090854
563.0000	0.0919536
562.5000	0.0936194
562.0000	0.0947467
561.5000	0.0964346
561.0000	0.0975735
560.5000	0.0992986
560.0000	0.100448
559.5000	0.102211
559.0000	0.103379
558.5000	0.105153
558.0000	0.106353
557.5000	0.108142
557.0000	0.109331
556.5000	0.111148
556.0000	0.112365
555.5000	0.1142
555.0000	0.115411
554.5000	0.117234
554.0000	0.118452
553.5000	0.120282
553.0000	0.121474
552.5000	0.123311
552.0000	0.124497
551.5000	0.126285
551.0000	0.127465
550.5000	0.129253
550.0000	0.130418
549.5000	0.132149
549.0000	0.133296
548.5000	0.134989
548.0000	0.136108
547.5000	0.137747
547.0000	0.138835
546.5000	0.140425
546.0000	0.141446
545.5000	0.142968
545.0000	0.14396
544.5000	0.145412
544.0000	0.146352
543.5000	0.147726
543.0000	0.148612
542.5000	0.149929
542.0000	0.150778
541.5000	0.152025
541.0000	0.152824
540.5000	0.153952
540.0000	0.154695
539.5000	0.155772
539.0000	0.156457
538.5000	0.157424
538.0000	0.158019
537.5000	0.158888
537.0000	0.159435
536.5000	0.160178
536.0000	0.160622
535.5000	0.161239
535.0000	0.16161
534.5000	0.162098
534.0000	0.1624
533.5000	0.162747
533.0000	0.162952
532.5000	0.163155
532.0000	0.163251
531.5000	0.163352
531.0000	0.163358
530.5000	0.163301
530.0000	0.163221
529.5000	0.163019
529.0000	0.162833
528.5000	0.16248
528.0000	0.162192
527.5000	0.161722
527.0000	0.161365
526.5000	0.160737
526.0000	0.160278
525.5000	0.159513
525.0000	0.158992
524.5000	0.158117
524.0000	0.157482
523.5000	0.15647
523.0000	0.155771
522.5000	0.154677
522.0000	0.153911
521.5000	0.152741
521.0000	0.151945
520.5000	0.150656
520.0000	0.149738
519.5000	0.14839
519.0000	0.14747
518.5000	0.14607
518.0000	0.145128
517.5000	0.143676
517.0000	0.142705
516.5000	0.141232
516.0000	0.140253
515.5000	0.138779
515.0000	0.137769
514.5000	0.136276
514.0000	0.135282
513.5000	0.133774
513.0000	0.132782
512.5000	0.131275
512.0000	0.130271
511.5000	0.128798
511.0000	0.127806
510.5000	0.12633
510.0000	0.125342
509.5000	0.123865
509.0000	0.122881
508.5000	0.121449
508.0000	0.120503
507.5000	0.119046
507.0000	0.118094
506.5000	0.116697
506.0000	0.115796
505.5000	0.114419
505.0000	0.113512
504.5000	0.112173
504.0000	0.111297
503.5000	0.110015
503.0000	0.109172
502.5000	0.107921
502.0000	0.107088
501.5000	0.105876
501.0000	0.105097
500.5000	0.103909
500.0000	0.103124
499.5000	0.101951
499.0000	0.101196
498.5000	0.100074
498.0000	0.0993117
497.5000	0.0981745
497.0000	0.0974625
496.5000	0.096371
496.0000	0.0956528
495.5000	0.0945971
495.0000	0.0938813
494.5000	0.0928514
494.0000	0.092191
493.5000	0.0911901
493.0000	0.0905272
492.5000	0.0895358
492.0000	0.0888565
491.5000	0.0879048
491.0000	0.0872939
490.5000	0.0863202
490.0000	0.0856972
489.5000	0.0847571
489.0000	0.0841334
488.5000	0.0832311
488.0000	0.0826209
487.5000	0.0816904
487.0000	0.0810938
486.5000	0.0802276
486.0000	0.0796517
485.5000	0.0788481
485.0000	0.0782813
484.5000	0.0774528
484.0000	0.0769276
483.5000	0.0761685
483.0000	0.0756608
482.5000	0.0749514
482.0000	0.0744666
481.5000	0.0737701
481.0000	0.0733305
480.5000	0.0726623
480.0000	0.0722398
479.5000	0.0716213
479.0000	0.0712333
478.5000	0.0707117
478.0000	0.0703643
477.5000	0.0698683
477.0000	0.0695478
476.5000	0.0691489
476.0000	0.0688873
475.5000	0.0685555
475.0000	0.0683618
474.5000	0.068114
474.0000	0.0679894
473.5000	0.0678551
473.0000	0.0678209
472.5000	0.0678
472.0000	0.0678199
471.5000	0.0679283
471.0000	0.0680559
470.5000	0.0683201
470.0000	0.0685287
469.5000	0.0689767
469.0000	0.069333
468.5000	0.0699767
468.0000	0.0704802
467.5000	0.0713333
467.0000	0.0720024
466.5000	0.0731212
466.0000	0.0739562
465.5000	0.0753836
465.0000	0.0764655
464.5000	0.0782497
464.0000	0.0795334
463.5000	0.0816889
463.0000	0.0832185
462.5000	0.0857751
462.0000	0.0876054
461.5000	0.0905563
461.0000	0.0926587
460.5000	0.0960503
460.0000	0.098443
459.5000	0.102233
459.0000	0.104862
458.5000	0.10897
458.0000	0.111772
457.5000	0.116103
457.0000	0.119015
456.5000	0.123403
456.0000	0.126318
455.5000	0.130634
455.0000	0.133435
454.5000	0.137447
454.0000	0.139966
453.5000	0.143473
453.0000	0.145563
452.5000	0.148384
452.0000	0.149998
451.5000	0.152021
451.0000	0.153122
450.5000	0.154336
450.0000	0.154855
449.5000	0.155216
449.0000	0.155163
448.5000	0.154757
448.0000	0.154251
447.5000	0.15323
447.0000	0.152333
446.5000	0.150806
446.0000	0.149645
445.5000	0.147712
445.0000	0.146306
444.5000	0.144066
444.0000	0.142539
443.5000	0.140195
443.0000	0.138575
442.5000	0.136185
442.0000	0.134576
441.5000	0.13223
441.0000	0.130686
440.5000	0.128457
440.0000	0.127044
439.5000	0.125039
439.0000	0.123819
438.5000	0.122174
438.0000	0.121186
437.5000	0.11993
437.0000	0.119228
436.5000	0.118425
436.0000	0.118034
435.5000	0.117754
435.0000	0.117711
434.5000	0.117913
434.0000	0.118244
433.5000	0.11902
433.0000	0.11967
432.5000	0.120877
432.0000	0.121841
431.5000	0.123515
431.0000	0.124735
430.5000	0.126724
430.0000	0.128161
429.5000	0.130379
429.0000	0.131892
428.5000	0.134206
428.0000	0.135747
427.5000	0.137993
427.0000	0.139387
426.5000	0.141424
426.0000	0.14267
425.5000	0.144388
425.0000	0.145357
424.5000	0.146574
424.0000	0.147222
423.5000	0.147971
423.0000	0.148273
422.5000	0.148474
422.0000	0.148405
421.5000	0.148039
421.0000	0.147647
420.5000	0.14687
420.0000	0.146153
419.5000	0.145008
419.0000	0.14408
418.5000	0.142537
418.0000	0.141444
417.5000	0.139729
417.0000	0.138572
416.5000	0.136723
416.0000	0.1355
415.5000	0.13368
415.0000	0.132436
414.5000	0.130652
414.0000	0.129514
413.5000	0.127882
413.0000	0.12684
412.5000	0.125418
412.0000	0.124563
411.5000	0.123371
411.0000	0.122708
410.5000	0.121813
410.0000	0.121347
409.5000	0.120731
409.0000	0.120421
408.5000	0.120206
408.0000	0.120141
407.5000	0.12017
407.0000	0.120285
406.5000	0.120539
406.0000	0.120823
405.5000	0.121366
405.0000	0.121743
404.5000	0.122396
404.0000	0.122876
403.5000	0.123639
403.0000	0.124199
402.5000	0.124977
402.0000	0.125457
401.5000	0.126186
401.0000	0.126666
400.5000	0.127294
400.0000	0.127704
399.5000	0.128207
399.0000	0.128552
398.5000	0.129018
398.0000	0.129262
397.5000	0.129595
397.0000	0.129726
396.5000	0.129954
396.0000	0.130049
395.5000	0.130143
395.0000	0.13022
394.5000	0.130236
394.0000	0.130282
393.5000	0.130372
393.0000	0.130421
392.5000	0.130492
392.0000	0.130517
391.5000	0.130622
391.0000	0.130758
390.5000	0.131042
390.0000	0.131231
389.5000	0.131628
389.0000	0.131987
388.5000	0.132532
388.0000	0.132974
387.5000	0.133697
387.0000	0.134223
386.5000	0.135128
386.0000	0.135783
385.5000	0.136895
385.0000	0.137693
384.5000	0.138895
384.0000	0.139751
383.5000	0.141151
383.0000	0.142126
382.5000	0.143602
382.0000	0.144676
381.5000	0.146306
381.0000	0.147446
380.5000	0.149171
380.0000	0.150354
379.5000	0.152112
379.0000	0.153333
378.5000	0.155185
378.0000	0.156439
377.5000	0.158366
377.0000	0.159646
376.5000	0.1616
376.0000	0.162898
375.5000	0.164927
375.0000	0.16624
374.5000	0.16825
374.0000	0.169652
373.5000	0.17172
373.0000	0.173162
372.5000	0.17528
372.0000	0.176774
371.5000	0.179083
371.0000	0.180642
370.5000	0.182992
370.0000	0.184439
369.5000	0.186953
369.0000	0.188614
368.5000	0.191238
368.0000	0.192997
367.5000	0.195706
367.0000	0.197547
366.5000	0.200431
366.0000	0.202361
365.5000	0.20543
365.0000	0.207463
364.5000	0.210518
364.0000	0.212584
363.5000	0.215766
363.0000	0.217876
362.5000	0.221096
362.0000	0.22325
361.5000	0.226502
361.0000	0.228648
360.5000	0.231968
360.0000	0.234138
359.5000	0.237339
359.0000	0.239502
358.5000	0.242765
358.0000	0.244953
357.5000	0.248135
357.0000	0.250249
356.5000	0.253536
356.0000	0.255705
355.5000	0.258971
355.0000	0.261119
354.5000	0.264385
354.0000	0.26647
353.5000	0.269576
353.0000	0.271667
352.5000	0.274846
352.0000	0.276898
351.5000	0.279897
351.0000	0.281927
350.5000	0.284951
350.0000	0.286862
349.5000	0.289733
349.0000	0.291508
348.5000	0.29428
348.0000	0.296011
347.5000	0.298691
347.0000	0.300452
346.5000	0.302964
346.0000	0.304536
345.5000	0.306918
345.0000	0.30852
344.5000	0.310687
344.0000	0.312079
343.5000	0.314233
343.0000	0.315591
342.5000	0.317643
342.0000	0.318905
341.5000	0.320784
341.0000	0.322021
340.5000	0.32378
340.0000	0.326868
339.5000	0.32851
339.0000	0.329524
338.5000	0.331125
338.0000	0.332037
337.5000	0.333507
337.0000	0.334447
336.5000	0.335838
336.0000	0.336768
335.5000	0.338034
335.0000	0.338874
334.5000	0.340103
334.0000	0.340941
333.5000	0.342177
333.0000	0.343036
332.5000	0.34432
332.0000	0.345021
331.5000	0.346323
331.0000	0.34717
330.5000	0.348502
330.0000	0.349411
329.5000	0.350797
329.0000	0.351823
328.5000	0.35328
328.0000	0.354298
327.5000	0.355883
327.0000	0.35707
326.5000	0.358748
326.0000	0.360053
325.5000	0.362102
325.0000	0.36352
324.5000	0.365806
324.0000	0.367506
323.5000	0.37007
323.0000	0.371962
322.5000	0.37499
322.0000	0.377169
321.5000	0.380753
321.0000	0.383306
320.5000	0.387276
320.0000	0.390137
319.5000	0.394724
319.0000	0.39793
318.5000	0.403149
318.0000	0.406809
317.5000	0.41257
317.0000	0.416736
316.5000	0.423216
316.0000	0.427807
315.5000	0.435102
315.0000	0.440254
314.5000	0.448472
314.0000	0.45421
313.5000	0.463337
313.0000	0.469781
312.5000	0.479994
312.0000	0.487155
311.5000	0.498529
311.0000	0.506481
310.5000	0.518908
310.0000	0.527634
309.5000	0.541328
309.0000	0.550916
308.5000	0.565917
308.0000	0.576298
307.5000	0.592698
307.0000	0.604062
306.5000	0.621907
306.0000	0.634294
305.5000	0.653697
305.0000	0.66711
304.5000	0.68826
304.0000	0.702862
303.5000	0.725665
303.0000	0.741462
302.5000	0.766121
302.0000	0.783148
301.5000	0.809699
301.0000	0.828001
300.5000	0.856457
300.0000	0.876119

##### Extended Information
[コメント情報]
試料名
コメント
測定者
所属
会社	関西大学　化学生命工学部

[データ情報]
作成日時	2014/06/05 23:39

データタイプ	等間隔データ
横軸	Wavelength [nm]
縦軸	Abs
スタート	700 nm
エンド	300 nm
データ間隔	0.5 nm
データ数	801     

[測定情報]
装置名	V-670
機種名	V-670
シリアル番号	B118261154

付属品名	USE-753
付属品シリアルNo.	B118261154
  セル長	0.1 mm

測定日時	2014/06/05 23:39

測光モード	Abs
測定範囲	700 - 300 nm
データ取込間隔	0.5 nm
UV/Vis バンド幅	1.0 nm
NIR バンド幅	8.0 nm
レスポンス	Medium
走査速度	400 nm/min
光源切換	340 nm
回折格子切換	850 nm
光源	D2/WI
フィルタ切換	ステップ
補正	ベースライン

