TITLE	
DATA TYPE	ULTRAVIOLET SPECTRUM
ORIGIN	JASCO
OWNER	
DATE	14/05/22
TIME	18:01:50
SPECTROMETER/DATA SYSTEM	
LOCALE	1041
RESOLUTION	
DELTAX	-0.5
XUNITS	NANOMETERS
YUNITS	ABSORBANCE
FIRSTX	  700.0000
LASTX	  300.0000
NPOINTS	     801
FIRSTY	     0.01570
MAXY	     1.69792
MINY	     0.01548
XYDATA
700.0000	0.0156988
699.5000	0.0156848
699.0000	0.0156669
698.5000	0.0156595
698.0000	0.0156528
697.5000	0.0156698
697.0000	0.0156606
696.5000	0.0156598
696.0000	0.0156431
695.5000	0.0156576
695.0000	0.0156467
694.5000	0.0156471
694.0000	0.0156231
693.5000	0.015617
693.0000	0.0156156
692.5000	0.0156143
692.0000	0.0156258
691.5000	0.015599
691.0000	0.0155965
690.5000	0.0156044
690.0000	0.0156131
689.5000	0.0156142
689.0000	0.0155972
688.5000	0.0155939
688.0000	0.0155951
687.5000	0.0156019
687.0000	0.0155881
686.5000	0.0155731
686.0000	0.0155798
685.5000	0.0155667
685.0000	0.0155722
684.5000	0.0155603
684.0000	0.0155454
683.5000	0.0155273
683.0000	0.0155144
682.5000	0.0155094
682.0000	0.015504
681.5000	0.0154918
681.0000	0.0154858
680.5000	0.0154838
680.0000	0.0155007
679.5000	0.0154935
679.0000	0.0154988
678.5000	0.0155383
678.0000	0.0155499
677.5000	0.0155595
677.0000	0.0155612
676.5000	0.0155832
676.0000	0.0156026
675.5000	0.0156465
675.0000	0.0156651
674.5000	0.0156945
674.0000	0.0157254
673.5000	0.0157635
673.0000	0.0157773
672.5000	0.0157916
672.0000	0.0158042
671.5000	0.0158458
671.0000	0.0158672
670.5000	0.0158954
670.0000	0.0158999
669.5000	0.0159028
669.0000	0.01591
668.5000	0.0159439
668.0000	0.0159696
667.5000	0.0159951
667.0000	0.0159897
666.5000	0.0160301
666.0000	0.0160858
665.5000	0.0161232
665.0000	0.0161518
664.5000	0.0161897
664.0000	0.0162494
663.5000	0.0163131
663.0000	0.0163511
662.5000	0.016398
662.0000	0.0164514
661.5000	0.0164895
661.0000	0.016532
660.5000	0.0166059
660.0000	0.0166283
659.5000	0.0166587
659.0000	0.0166826
658.5000	0.0167205
658.0000	0.0167751
657.5000	0.0167954
657.0000	0.0168488
656.5000	0.0169214
656.0000	0.0169476
655.5000	0.0169943
655.0000	0.0170437
654.5000	0.0170798
654.0000	0.0171242
653.5000	0.0172136
653.0000	0.0172545
652.5000	0.0173352
652.0000	0.0173713
651.5000	0.0174272
651.0000	0.0174741
650.5000	0.0175447
650.0000	0.0175853
649.5000	0.0176683
649.0000	0.0177175
648.5000	0.0177893
648.0000	0.0178441
647.5000	0.0179118
647.0000	0.0179484
646.5000	0.0180156
646.0000	0.0180726
645.5000	0.0181635
645.0000	0.0182228
644.5000	0.0182925
644.0000	0.0183249
643.5000	0.0184273
643.0000	0.0184823
642.5000	0.0185415
642.0000	0.0185946
641.5000	0.0186779
641.0000	0.0187531
640.5000	0.0188589
640.0000	0.01891
639.5000	0.0189825
639.0000	0.0190606
638.5000	0.0191567
638.0000	0.0191969
637.5000	0.0192964
637.0000	0.0193376
636.5000	0.0194233
636.0000	0.0194839
635.5000	0.0195808
635.0000	0.0196341
634.5000	0.0197054
634.0000	0.0197689
633.5000	0.0198802
633.0000	0.0199404
632.5000	0.0200305
632.0000	0.020094
631.5000	0.0201905
631.0000	0.0202487
630.5000	0.0203771
630.0000	0.0204425
629.5000	0.0205396
629.0000	0.0206104
628.5000	0.0207078
628.0000	0.0207646
627.5000	0.0208482
627.0000	0.0209174
626.5000	0.021013
626.0000	0.0210828
625.5000	0.0211879
625.0000	0.0212801
624.5000	0.0213632
624.0000	0.0214217
623.5000	0.0215121
623.0000	0.0215805
622.5000	0.0216834
622.0000	0.0217698
621.5000	0.0219042
621.0000	0.0219773
620.5000	0.0220801
620.0000	0.0221613
619.5000	0.0222976
619.0000	0.0223637
618.5000	0.022495
618.0000	0.0225944
617.5000	0.0226919
617.0000	0.0227654
616.5000	0.0228775
616.0000	0.0229579
615.5000	0.0230617
615.0000	0.0231434
614.5000	0.0232606
614.0000	0.023332
613.5000	0.0234324
613.0000	0.023497
612.5000	0.0236217
612.0000	0.0236916
611.5000	0.0238119
611.0000	0.0239081
610.5000	0.0240523
610.0000	0.024129
609.5000	0.0242667
609.0000	0.0243453
608.5000	0.024461
608.0000	0.0245469
607.5000	0.0246608
607.0000	0.0247526
606.5000	0.0248851
606.0000	0.0249616
605.5000	0.0250835
605.0000	0.0251557
604.5000	0.0252775
604.0000	0.0253513
603.5000	0.0254707
603.0000	0.0255403
602.5000	0.0256721
602.0000	0.02575
601.5000	0.0258788
601.0000	0.0259742
600.5000	0.0260947
600.0000	0.0261569
599.5000	0.0262767
599.0000	0.0263432
598.5000	0.0264484
598.0000	0.0265466
597.5000	0.0266643
597.0000	0.0267545
596.5000	0.0268734
596.0000	0.0269584
595.5000	0.0270861
595.0000	0.0271615
594.5000	0.0272937
594.0000	0.0273987
593.5000	0.0275148
593.0000	0.0276052
592.5000	0.0277356
592.0000	0.0278277
591.5000	0.0279694
591.0000	0.0280529
590.5000	0.028178
590.0000	0.0282696
589.5000	0.0284091
589.0000	0.0285076
588.5000	0.0286598
588.0000	0.0287519
587.5000	0.0288775
587.0000	0.0289695
586.5000	0.0291031
586.0000	0.0291972
585.5000	0.0293362
585.0000	0.0294251
584.5000	0.0295635
584.0000	0.0296524
583.5000	0.0298041
583.0000	0.0298883
582.5000	0.0300231
582.0000	0.0301002
581.5000	0.0302453
581.0000	0.0303465
580.5000	0.030476
580.0000	0.0305645
579.5000	0.0307288
579.0000	0.0308278
578.5000	0.0309654
578.0000	0.0310746
577.5000	0.0312251
577.0000	0.0313381
576.5000	0.0314971
576.0000	0.0315925
575.5000	0.0317466
575.0000	0.0318452
574.5000	0.0320028
574.0000	0.0321251
573.5000	0.0322885
573.0000	0.0324049
572.5000	0.03256
572.0000	0.0326787
571.5000	0.032843
571.0000	0.0329419
570.5000	0.033099
570.0000	0.0331949
569.5000	0.0333707
569.0000	0.0334878
568.5000	0.0336578
568.0000	0.0337881
567.5000	0.03395
567.0000	0.0340605
566.5000	0.0342245
566.0000	0.0343277
565.5000	0.0344937
565.0000	0.0346011
564.5000	0.0347512
564.0000	0.0348607
563.5000	0.0350405
563.0000	0.0351612
562.5000	0.0353368
562.0000	0.035448
561.5000	0.0356235
561.0000	0.035736
560.5000	0.0359038
560.0000	0.0360076
559.5000	0.036189
559.0000	0.0362973
558.5000	0.0364725
558.0000	0.0366091
557.5000	0.0367975
557.0000	0.0369059
556.5000	0.0370757
556.0000	0.0371796
555.5000	0.0373346
555.0000	0.0374356
554.5000	0.037588
554.0000	0.0376969
553.5000	0.0378569
553.0000	0.0379705
552.5000	0.0381452
552.0000	0.0382634
551.5000	0.0384194
551.0000	0.0385181
550.5000	0.0386498
550.0000	0.0387305
549.5000	0.0388786
549.0000	0.0389836
548.5000	0.0391525
548.0000	0.0392292
547.5000	0.0393667
547.0000	0.0394529
546.5000	0.0395663
546.0000	0.0396543
545.5000	0.0397584
545.0000	0.0398347
544.5000	0.0399545
544.0000	0.040029
543.5000	0.0401547
543.0000	0.040223
542.5000	0.0403293
542.0000	0.0403796
541.5000	0.0404784
541.0000	0.0405348
540.5000	0.0406185
540.0000	0.0406648
539.5000	0.0407384
539.0000	0.0407827
538.5000	0.0408366
538.0000	0.0408917
537.5000	0.0409695
537.0000	0.0410029
536.5000	0.0410326
536.0000	0.0410591
535.5000	0.0410979
535.0000	0.0411232
534.5000	0.0411571
534.0000	0.0411857
533.5000	0.0412123
533.0000	0.0412162
532.5000	0.0412632
532.0000	0.0412977
531.5000	0.0412931
531.0000	0.0413208
530.5000	0.041327
530.0000	0.0413457
529.5000	0.0413549
529.0000	0.0413701
528.5000	0.0413982
528.0000	0.041399
527.5000	0.0414277
527.0000	0.0414317
526.5000	0.0414354
526.0000	0.0414346
525.5000	0.04143
525.0000	0.0414427
524.5000	0.0414344
524.0000	0.0414529
523.5000	0.0414639
523.0000	0.041487
522.5000	0.0414882
522.0000	0.0415011
521.5000	0.0415228
521.0000	0.0415351
520.5000	0.041577
520.0000	0.0415463
519.5000	0.0415822
519.0000	0.041595
518.5000	0.0416101
518.0000	0.0416306
517.5000	0.0416676
517.0000	0.0416908
516.5000	0.0417262
516.0000	0.0417508
515.5000	0.0417552
515.0000	0.0417858
514.5000	0.0418477
514.0000	0.041888
513.5000	0.0419499
513.0000	0.0419664
512.5000	0.0420138
512.0000	0.0420573
511.5000	0.0421133
511.0000	0.042142
510.5000	0.0421926
510.0000	0.0422102
509.5000	0.0422845
509.0000	0.042348
508.5000	0.0424234
508.0000	0.0424458
507.5000	0.0425126
507.0000	0.0425589
506.5000	0.0426328
506.0000	0.0427039
505.5000	0.0427741
505.0000	0.0428316
504.5000	0.0429064
504.0000	0.0429786
503.5000	0.0430561
503.0000	0.0431104
502.5000	0.0431969
502.0000	0.0432649
501.5000	0.0433538
501.0000	0.0434131
500.5000	0.0435112
500.0000	0.0435813
499.5000	0.0436724
499.0000	0.0437599
498.5000	0.0438862
498.0000	0.0439503
497.5000	0.0441006
497.0000	0.0442049
496.5000	0.0443452
496.0000	0.0444283
495.5000	0.0445557
495.0000	0.0446382
494.5000	0.0447736
494.0000	0.0448745
493.5000	0.0450237
493.0000	0.0451138
492.5000	0.0452518
492.0000	0.0453371
491.5000	0.0454974
491.0000	0.0455691
490.5000	0.0457197
490.0000	0.0458183
489.5000	0.0459537
489.0000	0.0460659
488.5000	0.0462438
488.0000	0.0463671
487.5000	0.046532
487.0000	0.0466395
486.5000	0.0468294
486.0000	0.0469226
485.5000	0.0470835
485.0000	0.04722
484.5000	0.0474355
484.0000	0.0475514
483.5000	0.0477617
483.0000	0.0479095
482.5000	0.048122
482.0000	0.048248
481.5000	0.0484482
481.0000	0.0485811
480.5000	0.0488054
480.0000	0.0489727
479.5000	0.0492414
479.0000	0.049404
478.5000	0.0496662
478.0000	0.0498203
477.5000	0.0500896
477.0000	0.0502652
476.5000	0.0505434
476.0000	0.0507083
475.5000	0.050993
475.0000	0.0512098
474.5000	0.0515157
474.0000	0.0517456
473.5000	0.0520891
473.0000	0.0523356
472.5000	0.0527054
472.0000	0.0529623
471.5000	0.0534157
471.0000	0.0537128
470.5000	0.0541814
470.0000	0.0545283
469.5000	0.0550817
469.0000	0.0554762
468.5000	0.0561194
468.0000	0.0565805
467.5000	0.0573111
467.0000	0.0578456
466.5000	0.0587008
466.0000	0.0593061
465.5000	0.0603125
465.0000	0.0610217
464.5000	0.0621928
464.0000	0.0630381
463.5000	0.0644348
463.0000	0.065438
462.5000	0.0670694
462.0000	0.0682284
461.5000	0.0701048
461.0000	0.0714537
460.5000	0.0736185
460.0000	0.0751413
459.5000	0.0776071
459.0000	0.0793408
458.5000	0.082095
458.0000	0.0839958
457.5000	0.0869737
457.0000	0.0889832
456.5000	0.0920135
456.0000	0.0940158
455.5000	0.0969722
455.0000	0.0988619
454.5000	0.101539
454.0000	0.103196
453.5000	0.10544
453.0000	0.106735
452.5000	0.108398
452.0000	0.109273
451.5000	0.110256
451.0000	0.110687
450.5000	0.111081
450.0000	0.111134
449.5000	0.110935
449.0000	0.110644
448.5000	0.110035
448.0000	0.109489
447.5000	0.108556
447.0000	0.107845
446.5000	0.106721
446.0000	0.105871
445.5000	0.104572
445.0000	0.1037
444.5000	0.102337
444.0000	0.101398
443.5000	0.099978
443.0000	0.0990348
442.5000	0.097615
442.0000	0.0966461
441.5000	0.0952542
441.0000	0.0943442
440.5000	0.0930195
440.0000	0.0921659
439.5000	0.0909692
439.0000	0.090241
438.5000	0.0891968
438.0000	0.0885912
437.5000	0.0877819
437.0000	0.087361
436.5000	0.0868407
436.0000	0.08659
435.5000	0.0863659
435.0000	0.0863131
434.5000	0.0863687
434.0000	0.0865155
433.5000	0.0868875
433.0000	0.0872695
432.5000	0.0879214
432.0000	0.0885061
431.5000	0.0894536
431.0000	0.0901701
430.5000	0.0913161
430.0000	0.0921174
429.5000	0.0933527
429.0000	0.0941893
428.5000	0.0954539
428.0000	0.0962833
427.5000	0.0974495
427.0000	0.0981822
426.5000	0.0991244
426.0000	0.0997079
425.5000	0.100383
425.0000	0.10074
424.5000	0.101114
424.0000	0.101246
423.5000	0.101279
423.0000	0.101173
422.5000	0.100868
422.0000	0.100558
421.5000	0.0999053
421.0000	0.099405
420.5000	0.0984938
420.0000	0.0978545
419.5000	0.0967279
419.0000	0.0958864
418.5000	0.0945524
418.0000	0.0936137
417.5000	0.0921856
417.0000	0.0912081
416.5000	0.0896824
416.0000	0.0886776
415.5000	0.087188
415.0000	0.086235
414.5000	0.0848201
414.0000	0.0839108
413.5000	0.0825618
413.0000	0.081687
412.5000	0.080528
412.0000	0.0798003
411.5000	0.0787398
411.0000	0.0780786
410.5000	0.0772029
410.0000	0.0766749
409.5000	0.0759833
409.0000	0.0755713
408.5000	0.0750012
408.0000	0.0747029
407.5000	0.0743365
407.0000	0.0741271
406.5000	0.073919
406.0000	0.0737848
405.5000	0.0736564
405.0000	0.0736308
404.5000	0.0736137
404.0000	0.0736013
403.5000	0.0735632
403.0000	0.0735585
402.5000	0.073525
402.0000	0.073512
401.5000	0.0734407
401.0000	0.0733736
400.5000	0.0731817
400.0000	0.073038
399.5000	0.0727898
399.0000	0.0725798
398.5000	0.0722385
398.0000	0.0720037
397.5000	0.0715483
397.0000	0.0712314
396.5000	0.0706775
396.0000	0.0703152
395.5000	0.0697218
395.0000	0.0692843
394.5000	0.0686418
394.0000	0.0682365
393.5000	0.0676036
393.0000	0.0671621
392.5000	0.0665146
392.0000	0.0660959
391.5000	0.0654958
391.0000	0.0650756
390.5000	0.0645015
390.0000	0.0641686
389.5000	0.0636338
389.0000	0.0633574
388.5000	0.0629712
388.0000	0.0627518
387.5000	0.0624381
387.0000	0.0622499
386.5000	0.0620325
386.0000	0.061911
385.5000	0.0617683
385.0000	0.0616938
384.5000	0.0616391
384.0000	0.0616443
383.5000	0.061624
383.0000	0.0616872
382.5000	0.0617193
382.0000	0.0617682
381.5000	0.0618177
381.0000	0.0619246
380.5000	0.0620233
380.0000	0.0621217
379.5000	0.0622583
379.0000	0.0623705
378.5000	0.0625395
378.0000	0.0626604
377.5000	0.0628828
377.0000	0.0630115
376.5000	0.0631817
376.0000	0.0633285
375.5000	0.0635429
375.0000	0.0637191
374.5000	0.0639871
374.0000	0.0641737
373.5000	0.0644613
373.0000	0.0646314
372.5000	0.0649401
372.0000	0.0651473
371.5000	0.0654659
371.0000	0.0656745
370.5000	0.06603
370.0000	0.066405
369.5000	0.0668305
369.0000	0.0671753
368.5000	0.0675924
368.0000	0.0679197
367.5000	0.0684415
367.0000	0.0687928
366.5000	0.0692617
366.0000	0.0696818
365.5000	0.0703055
365.0000	0.0706912
364.5000	0.0713555
364.0000	0.0717776
363.5000	0.0724845
363.0000	0.07295
362.5000	0.0736816
362.0000	0.074201
361.5000	0.0749512
361.0000	0.0754574
360.5000	0.0762077
360.0000	0.0767748
359.5000	0.0775033
359.0000	0.078061
358.5000	0.0788709
358.0000	0.0794041
357.5000	0.0802258
357.0000	0.0808011
356.5000	0.0816728
356.0000	0.0821954
355.5000	0.0830129
355.0000	0.0836206
354.5000	0.0844228
354.0000	0.0850471
353.5000	0.08591
353.0000	0.086514
352.5000	0.0873962
352.0000	0.0879791
351.5000	0.0888592
351.0000	0.0895754
350.5000	0.090474
350.0000	0.0911365
349.5000	0.0922612
349.0000	0.0929488
348.5000	0.0939794
348.0000	0.0947845
347.5000	0.0959182
347.0000	0.0966645
346.5000	0.0978507
346.0000	0.0986865
345.5000	0.100052
345.0000	0.100924
344.5000	0.102255
344.0000	0.103207
343.5000	0.104722
343.0000	0.105718
342.5000	0.107331
342.0000	0.108502
341.5000	0.110147
341.0000	0.111379
340.5000	0.113292
340.0000	0.115622
339.5000	0.117748
339.0000	0.119255
338.5000	0.121607
338.0000	0.123234
337.5000	0.125823
337.0000	0.1276
336.5000	0.130465
336.0000	0.132421
335.5000	0.135652
335.0000	0.137904
334.5000	0.14145
334.0000	0.143919
333.5000	0.147811
333.0000	0.150614
332.5000	0.154988
332.0000	0.158042
331.5000	0.162914
331.0000	0.166353
330.5000	0.171771
330.0000	0.175599
329.5000	0.181622
329.0000	0.185861
328.5000	0.192603
328.0000	0.19736
327.5000	0.204904
327.0000	0.210276
326.5000	0.21871
326.0000	0.224536
325.5000	0.233847
325.0000	0.240507
324.5000	0.250927
324.0000	0.258163
323.5000	0.269727
323.0000	0.277872
322.5000	0.29064
322.0000	0.299588
321.5000	0.313789
321.0000	0.323738
320.5000	0.339341
320.0000	0.350267
319.5000	0.367532
319.0000	0.379543
318.5000	0.398474
318.0000	0.411765
317.5000	0.432684
317.0000	0.447271
316.5000	0.470015
316.0000	0.485904
315.5000	0.510741
315.0000	0.527976
314.5000	0.555068
314.0000	0.573807
313.5000	0.603098
313.0000	0.623357
312.5000	0.655054
312.0000	0.676969
311.5000	0.711093
311.0000	0.734625
310.5000	0.771262
310.0000	0.796612
309.5000	0.836025
309.0000	0.863149
308.5000	0.905369
308.0000	0.934467
307.5000	0.979665
307.0000	1.01079
306.5000	1.05895
306.0000	1.09216
305.5000	1.14353
305.0000	1.17881
304.5000	1.23358
304.0000	1.27111
303.5000	1.32916
303.0000	1.36897
302.5000	1.43074
302.0000	1.47309
301.5000	1.53813
301.0000	1.58272
300.5000	1.65105
300.0000	1.69792

##### Extended Information
[コメント情報]
試料名
コメント
測定者
所属
会社	関西大学　化学生命工学部

[データ情報]
作成日時	2014/05/22 18:01

データタイプ	等間隔データ
横軸	Wavelength [nm]
縦軸	Abs
スタート	700 nm
エンド	300 nm
データ間隔	0.5 nm
データ数	801     

[測定情報]
装置名	V-670
機種名	V-670
シリアル番号	B118261154

付属品名	USE-753
付属品シリアルNo.	B118261154
  セル長	0.1 mm

測定日時	2014/05/22 18:01

測光モード	Abs
測定範囲	700 - 300 nm
データ取込間隔	0.5 nm
UV/Vis バンド幅	1.0 nm
NIR バンド幅	8.0 nm
レスポンス	Medium
走査速度	400 nm/min
光源切換	340 nm
回折格子切換	850 nm
光源	D2/WI
フィルタ切換	ステップ
補正	ベースライン

