TITLE	
DATA TYPE	ULTRAVIOLET SPECTRUM
ORIGIN	JASCO
OWNER	
DATE	14/02/14
TIME	23:30:07
SPECTROMETER/DATA SYSTEM	
LOCALE	1041
RESOLUTION	
DELTAX	-0.5
XUNITS	NANOMETERS
YUNITS	ABSORBANCE
FIRSTX	  700.0000
LASTX	  300.0000
NPOINTS	     801
FIRSTY	     0.00442
MAXY	     0.60384
MINY	     0.00283
XYDATA
700.0000	0.00442347
699.5000	0.00440471
699.0000	0.00437058
698.5000	0.00435137
698.0000	0.0043303
697.5000	0.00430973
697.0000	0.0042862
696.5000	0.00427453
696.0000	0.00427479
695.5000	0.00425605
695.0000	0.00424205
694.5000	0.00420243
694.0000	0.0042021
693.5000	0.00416469
693.0000	0.00415786
692.5000	0.0041395
692.0000	0.00412716
691.5000	0.00411238
691.0000	0.00407316
690.5000	0.00405059
690.0000	0.00403355
689.5000	0.00402127
689.0000	0.00400589
688.5000	0.00399573
688.0000	0.00398181
687.5000	0.00395227
687.0000	0.00393111
686.5000	0.00389142
686.0000	0.00385264
685.5000	0.00381498
685.0000	0.00380049
684.5000	0.00378551
684.0000	0.00375093
683.5000	0.00373512
683.0000	0.00368862
682.5000	0.0036755
682.0000	0.00362773
681.5000	0.00360386
681.0000	0.00357943
680.5000	0.00356223
680.0000	0.00355307
679.5000	0.00354658
679.0000	0.0035268
678.5000	0.00351144
678.0000	0.00349796
677.5000	0.00347655
677.0000	0.0034505
676.5000	0.00346241
676.0000	0.00343539
675.5000	0.0034124
675.0000	0.00341588
674.5000	0.0033801
674.0000	0.00336542
673.5000	0.0033272
673.0000	0.00331083
672.5000	0.00330247
672.0000	0.00328046
671.5000	0.00326838
671.0000	0.00323867
670.5000	0.0032338
670.0000	0.0032191
669.5000	0.00319212
669.0000	0.00318652
668.5000	0.00317925
668.0000	0.00318871
667.5000	0.0031346
667.0000	0.00312711
666.5000	0.00310993
666.0000	0.00310121
665.5000	0.00310835
665.0000	0.00308439
664.5000	0.00308376
664.0000	0.0030621
663.5000	0.00306652
663.0000	0.00304305
662.5000	0.00303433
662.0000	0.00300868
661.5000	0.00299012
661.0000	0.00300775
660.5000	0.00300205
660.0000	0.0029766
659.5000	0.00296871
659.0000	0.00295004
658.5000	0.0029407
658.0000	0.0029282
657.5000	0.00292695
657.0000	0.00290158
656.5000	0.00290361
656.0000	0.00291207
655.5000	0.00291566
655.0000	0.00291917
654.5000	0.00292956
654.0000	0.00293685
653.5000	0.00295168
653.0000	0.00292491
652.5000	0.00293819
652.0000	0.00294485
651.5000	0.00292506
651.0000	0.00290513
650.5000	0.0029115
650.0000	0.00291344
649.5000	0.00289693
649.0000	0.00290234
648.5000	0.00287439
648.0000	0.00286401
647.5000	0.00286383
647.0000	0.00284842
646.5000	0.00286489
646.0000	0.00285776
645.5000	0.00286888
645.0000	0.00288332
644.5000	0.00289511
644.0000	0.00290495
643.5000	0.00289228
643.0000	0.00290462
642.5000	0.00290533
642.0000	0.00289996
641.5000	0.00288924
641.0000	0.00290424
640.5000	0.00291715
640.0000	0.0029151
639.5000	0.00287465
639.0000	0.0028522
638.5000	0.0028516
638.0000	0.00284902
637.5000	0.00284107
637.0000	0.00283624
636.5000	0.00283035
636.0000	0.00284173
635.5000	0.00286568
635.0000	0.00286027
634.5000	0.00284828
634.0000	0.00284633
633.5000	0.00286436
633.0000	0.00287867
632.5000	0.00288965
632.0000	0.0029056
631.5000	0.00293173
631.0000	0.0029383
630.5000	0.00295009
630.0000	0.0029749
629.5000	0.00297609
629.0000	0.00299043
628.5000	0.00302055
628.0000	0.00303587
627.5000	0.00306471
627.0000	0.00304907
626.5000	0.00307143
626.0000	0.00308638
625.5000	0.0031062
625.0000	0.00310616
624.5000	0.00313808
624.0000	0.00316644
623.5000	0.00317198
623.0000	0.00317129
622.5000	0.00317264
622.0000	0.00317852
621.5000	0.00320333
621.0000	0.00320418
620.5000	0.00323907
620.0000	0.00327897
619.5000	0.00330016
619.0000	0.00330416
618.5000	0.00334862
618.0000	0.0033593
617.5000	0.00338416
617.0000	0.00342026
616.5000	0.00345028
616.0000	0.00348091
615.5000	0.00353208
615.0000	0.0035595
614.5000	0.00356111
614.0000	0.00358485
613.5000	0.00361448
613.0000	0.00362479
612.5000	0.00363196
612.0000	0.00363923
611.5000	0.00368241
611.0000	0.00368312
610.5000	0.00368124
610.0000	0.00371707
609.5000	0.00375133
609.0000	0.00376278
608.5000	0.00378424
608.0000	0.00382074
607.5000	0.0038558
607.0000	0.00385816
606.5000	0.00392764
606.0000	0.00397181
605.5000	0.00401408
605.0000	0.00403025
604.5000	0.00408053
604.0000	0.0041025
603.5000	0.00412852
603.0000	0.00415383
602.5000	0.00417892
602.0000	0.00421008
601.5000	0.00424718
601.0000	0.0042675
600.5000	0.00429712
600.0000	0.00419449
599.5000	0.00422881
599.0000	0.00424202
598.5000	0.00426312
598.0000	0.00428705
597.5000	0.00430702
597.0000	0.00431156
596.5000	0.00433104
596.0000	0.00436932
595.5000	0.00442456
595.0000	0.00441648
594.5000	0.00447096
594.0000	0.00448886
593.5000	0.00454422
593.0000	0.00456886
592.5000	0.00460266
592.0000	0.00464185
591.5000	0.00470325
591.0000	0.00473154
590.5000	0.00475914
590.0000	0.00479079
589.5000	0.00482626
589.0000	0.00484043
588.5000	0.0049057
588.0000	0.00493993
587.5000	0.00501489
587.0000	0.00505097
586.5000	0.00509636
586.0000	0.00511867
585.5000	0.00518138
585.0000	0.00523162
584.5000	0.0053156
584.0000	0.00536995
583.5000	0.00545119
583.0000	0.00549728
582.5000	0.00558496
582.0000	0.0056219
581.5000	0.00571304
581.0000	0.0057441
580.5000	0.0058213
580.0000	0.00587904
579.5000	0.00596718
579.0000	0.00601486
578.5000	0.00609274
578.0000	0.00614507
577.5000	0.00621551
577.0000	0.00625286
576.5000	0.00632952
576.0000	0.00637731
575.5000	0.00646109
575.0000	0.00650637
574.5000	0.00660812
574.0000	0.00664685
573.5000	0.00676842
573.0000	0.00683337
572.5000	0.00690549
572.0000	0.00695739
571.5000	0.00706657
571.0000	0.00711298
570.5000	0.00722172
570.0000	0.00727441
569.5000	0.00736911
569.0000	0.00745737
568.5000	0.0075511
568.0000	0.0075966
567.5000	0.00770126
567.0000	0.00777909
566.5000	0.00790155
566.0000	0.00796023
565.5000	0.00805697
565.0000	0.0080949
564.5000	0.00819809
564.0000	0.00825905
563.5000	0.00835953
563.0000	0.00841832
562.5000	0.0085172
562.0000	0.00859373
561.5000	0.00870584
561.0000	0.00877323
560.5000	0.00885474
560.0000	0.00890578
559.5000	0.00900835
559.0000	0.00909725
558.5000	0.00921154
558.0000	0.00927962
557.5000	0.00942989
557.0000	0.00951745
556.5000	0.00961441
556.0000	0.00965484
555.5000	0.00974172
555.0000	0.00983634
554.5000	0.00993711
554.0000	0.00999635
553.5000	0.0101099
553.0000	0.0101922
552.5000	0.0102889
552.0000	0.0103522
551.5000	0.0104597
551.0000	0.0105159
550.5000	0.010644
550.0000	0.0107294
549.5000	0.0108412
549.0000	0.010908
548.5000	0.0110063
548.0000	0.0110674
547.5000	0.0111925
547.0000	0.011258
546.5000	0.0113706
546.0000	0.0114207
545.5000	0.0115376
545.0000	0.0116111
544.5000	0.0117161
544.0000	0.0117578
543.5000	0.0118446
543.0000	0.0119394
542.5000	0.0120247
542.0000	0.0120654
541.5000	0.0121103
541.0000	0.012163
540.5000	0.0122224
540.0000	0.0122605
539.5000	0.0123094
539.0000	0.0123448
538.5000	0.0123716
538.0000	0.0123809
537.5000	0.012406
537.0000	0.0124088
536.5000	0.0124402
536.0000	0.01246
535.5000	0.0125317
535.0000	0.0125635
534.5000	0.0125851
534.0000	0.0126009
533.5000	0.0126356
533.0000	0.0126639
532.5000	0.0126834
532.0000	0.0127006
531.5000	0.0127634
531.0000	0.012757
530.5000	0.0128055
530.0000	0.0127815
529.5000	0.0128158
529.0000	0.0128287
528.5000	0.0128366
528.0000	0.0128331
527.5000	0.0128046
527.0000	0.0128282
526.5000	0.0128359
526.0000	0.0128505
525.5000	0.0128064
525.0000	0.0127847
524.5000	0.0127964
524.0000	0.0127763
523.5000	0.0127343
523.0000	0.0126924
522.5000	0.0126569
522.0000	0.0126422
521.5000	0.0126296
521.0000	0.0126126
520.5000	0.0125753
520.0000	0.0126043
519.5000	0.0125615
519.0000	0.0125392
518.5000	0.0125175
518.0000	0.0125167
517.5000	0.0124859
517.0000	0.0124814
516.5000	0.0124769
516.0000	0.0124689
515.5000	0.0124048
515.0000	0.0123731
514.5000	0.0123781
514.0000	0.0123385
513.5000	0.012286
513.0000	0.0122634
512.5000	0.0122569
512.0000	0.0122315
511.5000	0.01217
511.0000	0.0121503
510.5000	0.0121449
510.0000	0.0121172
509.5000	0.0120736
509.0000	0.0120534
508.5000	0.0120349
508.0000	0.0119968
507.5000	0.0119682
507.0000	0.0119618
506.5000	0.0119387
506.0000	0.0119122
505.5000	0.011857
505.0000	0.0118599
504.5000	0.0118237
504.0000	0.0118
503.5000	0.0117694
503.0000	0.0117506
502.5000	0.0117244
502.0000	0.0117197
501.5000	0.0116808
501.0000	0.0116755
500.5000	0.0116452
500.0000	0.0116401
499.5000	0.0116486
499.0000	0.0116498
498.5000	0.0116182
498.0000	0.0115947
497.5000	0.0115804
497.0000	0.0115772
496.5000	0.0115665
496.0000	0.0115718
495.5000	0.0115593
495.0000	0.0115834
494.5000	0.0115933
494.0000	0.0115885
493.5000	0.0115714
493.0000	0.0115781
492.5000	0.0115877
492.0000	0.0116165
491.5000	0.0116476
491.0000	0.0116611
490.5000	0.0116697
490.0000	0.0116818
489.5000	0.0116939
489.0000	0.0117138
488.5000	0.0117066
488.0000	0.0117659
487.5000	0.011843
487.0000	0.011877
486.5000	0.0118911
486.0000	0.0119414
485.5000	0.0120118
485.0000	0.0120304
484.5000	0.012079
484.0000	0.0121188
483.5000	0.0122278
483.0000	0.0122796
482.5000	0.0123217
482.0000	0.012387
481.5000	0.0124885
481.0000	0.0125399
480.5000	0.0126048
480.0000	0.0127033
479.5000	0.012816
479.0000	0.012907
478.5000	0.013083
478.0000	0.0132066
477.5000	0.013386
477.0000	0.0135107
476.5000	0.0137555
476.0000	0.0139496
475.5000	0.0142027
475.0000	0.0144088
474.5000	0.0147377
474.0000	0.0150289
473.5000	0.0154555
473.0000	0.015754
472.5000	0.0162366
472.0000	0.0166122
471.5000	0.0172334
471.0000	0.0176764
470.5000	0.0183937
470.0000	0.0189196
469.5000	0.0198499
469.0000	0.0204591
468.5000	0.0214781
468.0000	0.022243
467.5000	0.0234964
467.0000	0.0243791
466.5000	0.025883
466.0000	0.0269668
465.5000	0.0287836
465.0000	0.0301093
464.5000	0.0322589
464.0000	0.0338314
463.5000	0.0363861
463.0000	0.0382208
462.5000	0.0412578
462.0000	0.0434711
461.5000	0.0470207
461.0000	0.0495568
460.5000	0.0536641
460.0000	0.0565229
459.5000	0.0611416
459.0000	0.0643531
458.5000	0.0693819
458.0000	0.0728833
457.5000	0.0783231
457.0000	0.0819702
456.5000	0.0875217
456.0000	0.0912519
455.5000	0.096765
455.0000	0.100263
454.5000	0.105347
454.0000	0.108515
453.5000	0.112988
453.0000	0.11564
452.5000	0.119148
452.0000	0.121144
451.5000	0.123598
451.0000	0.124829
450.5000	0.126126
450.0000	0.126591
449.5000	0.126757
449.0000	0.126553
448.5000	0.125807
448.0000	0.12503
447.5000	0.123465
447.0000	0.122191
446.5000	0.120016
446.0000	0.11843
445.5000	0.115813
445.0000	0.113982
444.5000	0.11109
444.0000	0.109116
443.5000	0.106137
443.0000	0.104101
442.5000	0.101016
442.0000	0.0989829
441.5000	0.0959698
441.0000	0.0940161
440.5000	0.0911709
440.0000	0.0893692
439.5000	0.0867617
439.0000	0.0851819
438.5000	0.0829479
438.0000	0.0815945
437.5000	0.079827
437.0000	0.0788005
436.5000	0.0775884
436.0000	0.0769355
435.5000	0.0762928
435.0000	0.0760623
434.5000	0.0760184
434.0000	0.0761976
433.5000	0.0768322
433.0000	0.0774838
432.5000	0.0787033
432.0000	0.0797224
431.5000	0.081563
431.0000	0.0829353
430.5000	0.0851675
430.0000	0.0867493
429.5000	0.0892559
429.0000	0.0909836
428.5000	0.0936187
428.0000	0.0953344
427.5000	0.0978902
427.0000	0.0994701
426.5000	0.101675
426.0000	0.103023
425.5000	0.10478
425.0000	0.105792
424.5000	0.10697
424.0000	0.107515
423.5000	0.108109
423.0000	0.108299
422.5000	0.108181
422.0000	0.107861
421.5000	0.1071
421.0000	0.106398
420.5000	0.104996
420.0000	0.103952
419.5000	0.102076
419.0000	0.100683
418.5000	0.0984137
418.0000	0.0967916
417.5000	0.0942296
417.0000	0.0924567
416.5000	0.0897161
416.0000	0.087809
415.5000	0.0850771
415.0000	0.0832491
414.5000	0.0805169
414.0000	0.0787039
413.5000	0.0761262
413.0000	0.0745156
412.5000	0.0721595
412.0000	0.0706635
411.5000	0.0685642
411.0000	0.0672871
410.5000	0.0655894
410.0000	0.064555
409.5000	0.0631989
409.0000	0.0623771
408.5000	0.0613843
408.0000	0.0608154
407.5000	0.0601789
407.0000	0.0598578
406.5000	0.0594868
406.0000	0.0593493
405.5000	0.0592636
405.0000	0.0592867
404.5000	0.0593594
404.0000	0.0594181
403.5000	0.0595498
403.0000	0.0596698
402.5000	0.0597983
402.0000	0.0598746
401.5000	0.059976
401.0000	0.0599768
400.5000	0.0598892
400.0000	0.0597586
399.5000	0.0594889
399.0000	0.0592617
398.5000	0.0587635
398.0000	0.0583774
397.5000	0.0577226
397.0000	0.0572266
396.5000	0.0563116
396.0000	0.0556796
395.5000	0.054659
395.0000	0.0539542
394.5000	0.0527948
394.0000	0.0519806
393.5000	0.0507681
393.0000	0.0499543
392.5000	0.0486929
392.0000	0.0478549
391.5000	0.046613
391.0000	0.0457995
390.5000	0.044649
390.0000	0.0439193
389.5000	0.0428772
389.0000	0.0421745
388.5000	0.0412113
388.0000	0.0406383
387.5000	0.039856
387.0000	0.0393399
386.5000	0.0386085
386.0000	0.0382502
385.5000	0.0377709
385.0000	0.0374728
384.5000	0.037054
384.0000	0.0368188
383.5000	0.0365229
383.0000	0.0363572
382.5000	0.0361587
382.0000	0.0360391
381.5000	0.0358926
381.0000	0.0358217
380.5000	0.0357511
380.0000	0.0357587
379.5000	0.0356372
379.0000	0.0355649
378.5000	0.0354822
378.0000	0.0353832
377.5000	0.0352562
377.0000	0.0351549
376.5000	0.0350305
376.0000	0.0349626
375.5000	0.0348052
375.0000	0.034694
374.5000	0.0345354
374.0000	0.0344405
373.5000	0.034198
373.0000	0.0340283
372.5000	0.0338343
372.0000	0.0336662
371.5000	0.0335016
371.0000	0.0333875
370.5000	0.0332443
370.0000	0.0333339
369.5000	0.0332873
369.0000	0.0332292
368.5000	0.0332387
368.0000	0.0332847
367.5000	0.0333161
367.0000	0.0333368
366.5000	0.0334445
366.0000	0.0335047
365.5000	0.0336533
365.0000	0.0336772
364.5000	0.0340153
364.0000	0.0341411
363.5000	0.0343554
363.0000	0.0344839
362.5000	0.0347172
362.0000	0.0348935
361.5000	0.0351158
361.0000	0.0353219
360.5000	0.0355414
360.0000	0.0357865
359.5000	0.03606
359.0000	0.0362115
358.5000	0.0365343
358.0000	0.0366566
357.5000	0.0369109
357.0000	0.0370898
356.5000	0.0374234
356.0000	0.0376073
355.5000	0.0378416
355.0000	0.0380723
354.5000	0.0383437
354.0000	0.0385496
353.5000	0.0387837
353.0000	0.0389936
352.5000	0.0392716
352.0000	0.0394595
351.5000	0.0397044
351.0000	0.0399639
350.5000	0.0402782
350.0000	0.0404075
349.5000	0.0407171
349.0000	0.0409128
348.5000	0.0411892
348.0000	0.0413529
347.5000	0.0416105
347.0000	0.0418323
346.5000	0.0422454
346.0000	0.0425041
345.5000	0.0428033
345.0000	0.0430271
344.5000	0.0433702
344.0000	0.0436678
343.5000	0.0440516
343.0000	0.0443065
342.5000	0.0447486
342.0000	0.0450107
341.5000	0.045429
341.0000	0.0456937
340.5000	0.0461514
340.0000	0.0461388
339.5000	0.0466824
339.0000	0.0469629
338.5000	0.0474934
338.0000	0.047866
337.5000	0.048542
337.0000	0.0490934
336.5000	0.0498876
336.0000	0.0503554
335.5000	0.0511081
335.0000	0.0517013
334.5000	0.052742
334.0000	0.0534713
333.5000	0.0544527
333.0000	0.0551692
332.5000	0.056297
332.0000	0.0572508
331.5000	0.0586439
331.0000	0.0595702
330.5000	0.0610425
330.0000	0.0621459
329.5000	0.0638981
329.0000	0.0651016
328.5000	0.0669951
328.0000	0.068388
327.5000	0.0704648
327.0000	0.0719914
326.5000	0.0744006
326.0000	0.0761983
325.5000	0.0788452
325.0000	0.0807525
324.5000	0.0838336
324.0000	0.0859484
323.5000	0.0892359
323.0000	0.0915934
322.5000	0.095399
322.0000	0.0979976
321.5000	0.102143
321.0000	0.105092
320.5000	0.109832
320.0000	0.113108
319.5000	0.11826
319.0000	0.121847
318.5000	0.1276
318.0000	0.131653
317.5000	0.138138
317.0000	0.142613
316.5000	0.149658
316.0000	0.154654
315.5000	0.162568
315.0000	0.168054
314.5000	0.176685
314.0000	0.182732
313.5000	0.192258
313.0000	0.198874
312.5000	0.209393
312.0000	0.216731
311.5000	0.228238
311.0000	0.236224
310.5000	0.248832
310.0000	0.257581
309.5000	0.271387
309.0000	0.280994
308.5000	0.296023
308.0000	0.306565
307.5000	0.322981
307.0000	0.334305
306.5000	0.352144
306.0000	0.364547
305.5000	0.383933
305.0000	0.39728
304.5000	0.418172
304.0000	0.43262
303.5000	0.455245
303.0000	0.470917
302.5000	0.495316
302.0000	0.512164
301.5000	0.538318
301.0000	0.556296
300.5000	0.584431
300.0000	0.603843

##### Extended Information
[コメント情報]
試料名
コメント
測定者
所属
会社	関西大学　化学生命工学部

[データ情報]
作成日時	2014/02/14 23:30

データタイプ	等間隔データ
横軸	Wavelength [nm]
縦軸	Abs
スタート	700 nm
エンド	300 nm
データ間隔	0.5 nm
データ数	801     

[測定情報]
装置名	V-670
機種名	V-670
シリアル番号	B118261154

付属品名	USE-753
付属品シリアルNo.	B118261154
  セル長	0.1 mm

測定日時	2014/02/14 23:30

測光モード	Abs
測定範囲	700 - 300 nm
データ取込間隔	0.5 nm
UV/Vis バンド幅	1.0 nm
NIR バンド幅	8.0 nm
レスポンス	Medium
走査速度	400 nm/min
光源切換	340 nm
回折格子切換	850 nm
光源	D2/WI
フィルタ切換	ステップ
補正	ベースライン

