TITLE	
DATA TYPE	FLUORESCENCE SPECTRUM
ORIGIN	JASCO
OWNER	
DATE	25/05/11
TIME	20:06:11
SPECTROMETER/DATA SYSTEM	
LOCALE	1041
RESOLUTION	
DELTAX	0.5
XUNITS	NANOMETERS
YUNITS	INTENSITY
FIRSTX	  422.0000
LASTX	  700.0000
NPOINTS	     557
FIRSTY	    65.07397
MAXY	  2472.19971
MINY	     4.01897
XYDATA
422.0000	65.074
422.5000	59.7815
423.0000	52.9388
423.5000	45.5347
424.0000	37.3569
424.5000	29.3386
425.0000	22.4072
425.5000	16.6235
426.0000	12.4215
426.5000	9.37798
427.0000	7.37816
427.5000	6.22262
428.0000	5.53626
428.5000	5.37545
429.0000	5.53183
429.5000	5.85358
430.0000	6.32423
430.5000	6.84175
431.0000	7.52466
431.5000	8.29845
432.0000	9.13527
432.5000	10.1473
433.0000	11.4547
433.5000	12.9146
434.0000	14.7169
434.5000	16.8227
435.0000	19.2298
435.5000	22.1275
436.0000	25.4586
436.5000	29.4814
437.0000	34.0985
437.5000	39.5495
438.0000	46.0559
438.5000	53.3904
439.0000	62.3028
439.5000	72.6067
440.0000	84.1743
440.5000	97.4472
441.0000	113.044
441.5000	131.396
442.0000	151.614
442.5000	174.769
443.0000	201.369
443.5000	230.977
444.0000	265.829
444.5000	305.524
445.0000	350.104
445.5000	399.51
446.0000	454.988
446.5000	518.049
447.0000	590.16
447.5000	667
448.0000	749.705
448.5000	841.074
449.0000	938.111
449.5000	1042.5
450.0000	1153.56
450.5000	1267.04
451.0000	1379.95
451.5000	1493.5
452.0000	1608.77
452.5000	1723.06
453.0000	1832.75
453.5000	1934.88
454.0000	2031.5
454.5000	2118.16
455.0000	2196.22
455.5000	2265.28
456.0000	2323.21
456.5000	2370.85
457.0000	2410.23
457.5000	2437.66
458.0000	2456.99
458.5000	2468.19
459.0000	2472.2
459.5000	2466.26
460.0000	2456.32
460.5000	2439.32
461.0000	2416.73
461.5000	2389.25
462.0000	2356.73
462.5000	2320.65
463.0000	2280.17
463.5000	2236.2
464.0000	2192.51
464.5000	2147.72
465.0000	2099.95
465.5000	2048.53
466.0000	1997.96
466.5000	1947.74
467.0000	1897.22
467.5000	1847.06
468.0000	1798.21
468.5000	1748.97
469.0000	1701.99
469.5000	1656.64
470.0000	1613.17
470.5000	1572.25
471.0000	1534.2
471.5000	1497.39
472.0000	1463.27
472.5000	1432.41
473.0000	1404.36
473.5000	1380.45
474.0000	1360.85
474.5000	1344.57
475.0000	1332.9
475.5000	1324.47
476.0000	1319.77
476.5000	1319.08
477.0000	1322.81
477.5000	1331.45
478.0000	1343.31
478.5000	1359.26
479.0000	1379.54
479.5000	1401.13
480.0000	1425.67
480.5000	1451.57
481.0000	1478.5
481.5000	1508.03
482.0000	1538.66
482.5000	1567.28
483.0000	1595.36
483.5000	1625.38
484.0000	1652.3
484.5000	1675.44
485.0000	1699.27
485.5000	1722.51
486.0000	1740.54
486.5000	1757.12
487.0000	1770.59
487.5000	1780.9
488.0000	1787.58
488.5000	1791.98
489.0000	1793.58
489.5000	1788.84
490.0000	1778.17
490.5000	1764.72
491.0000	1751.8
491.5000	1731.56
492.0000	1706.45
492.5000	1677.57
493.0000	1647.02
493.5000	1611.71
494.0000	1573.96
494.5000	1534.71
495.0000	1493.71
495.5000	1451.16
496.0000	1409.06
496.5000	1367.03
497.0000	1323.76
497.5000	1279.9
498.0000	1236.33
498.5000	1194.37
499.0000	1155
499.5000	1117.25
500.0000	1079.58
500.5000	1042.83
501.0000	1006.17
501.5000	973.636
502.0000	942.616
502.5000	912.672
503.0000	884.719
503.5000	856.519
504.0000	830.962
504.5000	807.805
505.0000	787.544
505.5000	767.581
506.0000	747.01
506.5000	730.334
507.0000	715.865
507.5000	701.583
508.0000	688.163
508.5000	677.071
509.0000	666.542
509.5000	657.212
510.0000	650.007
510.5000	642.838
511.0000	636.181
511.5000	630.433
512.0000	625.534
512.5000	621.726
513.0000	618.204
513.5000	614.897
514.0000	613.171
514.5000	613.357
515.0000	612.11
515.5000	610.269
516.0000	609.775
516.5000	610.589
517.0000	610.996
517.5000	612.34
518.0000	613.503
518.5000	613.791
519.0000	615.425
519.5000	615.817
520.0000	616.818
520.5000	617.912
521.0000	619.266
521.5000	619.988
522.0000	622.206
522.5000	622.408
523.0000	623.166
523.5000	624.25
524.0000	624.548
524.5000	624.201
525.0000	624.42
525.5000	623.733
526.0000	623.7
526.5000	623.562
527.0000	622.014
527.5000	621.155
528.0000	620.243
528.5000	618.35
529.0000	615.86
529.5000	613.584
530.0000	610.88
530.5000	608.393
531.0000	603.837
531.5000	600.16
532.0000	595.268
532.5000	591.368
533.0000	586.307
533.5000	579.893
534.0000	575.428
534.5000	570.257
535.0000	563.447
535.5000	558.25
536.0000	552.686
536.5000	546.409
537.0000	539.735
537.5000	533.393
538.0000	526.905
538.5000	520.536
539.0000	513.824
539.5000	506.467
540.0000	499.239
540.5000	495.252
541.0000	487.942
541.5000	482.032
542.0000	475.354
542.5000	468.669
543.0000	462.13
543.5000	456.314
544.0000	450.124
544.5000	443.074
545.0000	436.867
545.5000	430.96
546.0000	425.814
546.5000	420.491
547.0000	414.456
547.5000	408.755
548.0000	403.389
548.5000	398.46
549.0000	393.148
549.5000	388.432
550.0000	384.023
550.5000	378.934
551.0000	373.753
551.5000	369.797
552.0000	364.796
552.5000	361.064
553.0000	357.168
553.5000	353.376
554.0000	349.615
554.5000	345.13
555.0000	341.679
555.5000	338.045
556.0000	334.711
556.5000	331.854
557.0000	328.219
557.5000	324.269
558.0000	321.139
558.5000	317.58
559.0000	313.848
559.5000	311.013
560.0000	308.132
560.5000	304.786
561.0000	302.133
561.5000	298.49
562.0000	295.599
562.5000	293.643
563.0000	289.811
563.5000	286.669
564.0000	283.669
564.5000	280.705
565.0000	277.944
565.5000	274.567
566.0000	271.694
566.5000	268.573
567.0000	266.091
567.5000	263.81
568.0000	260.202
568.5000	256.748
569.0000	254.505
569.5000	251.465
570.0000	248.352
570.5000	245.159
571.0000	242.216
571.5000	239.47
572.0000	236.631
572.5000	233.338
573.0000	230.846
573.5000	227.766
574.0000	224.828
574.5000	221.817
575.0000	219.009
575.5000	215.861
576.0000	212.33
576.5000	209.532
577.0000	206.885
577.5000	204.184
578.0000	201.527
578.5000	197.592
579.0000	194.913
579.5000	192.688
580.0000	189.773
580.5000	186.711
581.0000	184.335
581.5000	181.508
582.0000	179.202
582.5000	176.214
583.0000	173.425
583.5000	170.745
584.0000	168.941
584.5000	166.341
585.0000	163.485
585.5000	160.983
586.0000	159.094
586.5000	156.424
587.0000	153.752
587.5000	151.598
588.0000	149.152
588.5000	146.543
589.0000	144.581
589.5000	142.717
590.0000	140.493
590.5000	138.441
591.0000	136.178
591.5000	134.352
592.0000	132.238
592.5000	130.405
593.0000	128.326
593.5000	126.222
594.0000	124.517
594.5000	122.596
595.0000	121.028
595.5000	119.144
596.0000	116.906
596.5000	115.45
597.0000	113.732
597.5000	112.199
598.0000	110.764
598.5000	109.053
599.0000	107.756
599.5000	105.993
600.0000	104.096
600.5000	102.563
601.0000	101.192
601.5000	100.021
602.0000	98.2732
602.5000	96.7848
603.0000	95.424
603.5000	94.3497
604.0000	92.9413
604.5000	91.7194
605.0000	90.1395
605.5000	88.8546
606.0000	87.9964
606.5000	87.0999
607.0000	85.2412
607.5000	83.9082
608.0000	82.799
608.5000	81.6341
609.0000	80.3345
609.5000	79.1374
610.0000	77.7231
610.5000	76.632
611.0000	75.8765
611.5000	74.7562
612.0000	73.5642
612.5000	72.4981
613.0000	71.3441
613.5000	70.1515
614.0000	69.1445
614.5000	68.4675
615.0000	67.3048
615.5000	66.1277
616.0000	65.2086
616.5000	64.3273
617.0000	63.4784
617.5000	62.6253
618.0000	61.8615
618.5000	60.6533
619.0000	59.8898
619.5000	58.8892
620.0000	57.8942
620.5000	57.1762
621.0000	56.3656
621.5000	55.5139
622.0000	54.5875
622.5000	53.7498
623.0000	52.9542
623.5000	51.9577
624.0000	51.1846
624.5000	50.4016
625.0000	49.4869
625.5000	48.7668
626.0000	47.976
626.5000	47.3961
627.0000	46.6096
627.5000	45.825
628.0000	45.0266
628.5000	44.3667
629.0000	43.7449
629.5000	42.9772
630.0000	42.4741
630.5000	41.6137
631.0000	41.0587
631.5000	40.3619
632.0000	39.6389
632.5000	38.9602
633.0000	38.4273
633.5000	37.8614
634.0000	37.2999
634.5000	36.7466
635.0000	36.116
635.5000	35.6633
636.0000	34.9644
636.5000	34.3626
637.0000	33.9752
637.5000	33.3454
638.0000	32.4972
638.5000	32.1502
639.0000	31.6295
639.5000	31.3648
640.0000	30.771
640.5000	30.1338
641.0000	29.6446
641.5000	29.1799
642.0000	28.676
642.5000	28.3051
643.0000	27.7913
643.5000	27.4009
644.0000	26.9194
644.5000	26.5492
645.0000	25.9468
645.5000	25.5753
646.0000	25.1158
646.5000	24.7469
647.0000	24.2349
647.5000	23.9417
648.0000	23.5308
648.5000	23.1275
649.0000	22.7372
649.5000	22.2671
650.0000	21.9792
650.5000	21.6763
651.0000	21.3699
651.5000	20.9993
652.0000	20.5423
652.5000	20.2343
653.0000	20.0391
653.5000	19.6607
654.0000	19.4012
654.5000	18.9625
655.0000	18.6433
655.5000	18.3567
656.0000	17.9437
656.5000	17.5767
657.0000	17.3578
657.5000	17.1741
658.0000	16.9753
658.5000	16.6645
659.0000	16.1999
659.5000	15.8362
660.0000	15.6357
660.5000	15.3577
661.0000	15.1787
661.5000	14.8191
662.0000	14.59
662.5000	14.2882
663.0000	14.0231
663.5000	13.8636
664.0000	13.6472
664.5000	13.3599
665.0000	13.2363
665.5000	12.9628
666.0000	12.6948
666.5000	12.5923
667.0000	12.3377
667.5000	12.1603
668.0000	11.9937
668.5000	11.8326
669.0000	11.5412
669.5000	11.4186
670.0000	11.1183
670.5000	10.9794
671.0000	10.6509
671.5000	10.5501
672.0000	10.4956
672.5000	10.3372
673.0000	10.0887
673.5000	9.92974
674.0000	9.63322
674.5000	9.55253
675.0000	9.31415
675.5000	9.1908
676.0000	9.07394
676.5000	8.96446
677.0000	8.80816
677.5000	8.60715
678.0000	8.55216
678.5000	8.42159
679.0000	8.31978
679.5000	8.10944
680.0000	7.96913
680.5000	7.80471
681.0000	7.63643
681.5000	7.64539
682.0000	7.32867
682.5000	7.28694
683.0000	7.13259
683.5000	6.97036
684.0000	6.91868
684.5000	6.74887
685.0000	6.72713
685.5000	6.63005
686.0000	6.45703
686.5000	6.28755
687.0000	6.14678
687.5000	6.07661
688.0000	5.97979
688.5000	5.77783
689.0000	5.77241
689.5000	5.68358
690.0000	5.5382
690.5000	5.48054
691.0000	5.37171
691.5000	5.31781
692.0000	5.19432
692.5000	5.1164
693.0000	5.04486
693.5000	4.84698
694.0000	4.73644
694.5000	4.73748
695.0000	4.64863
695.5000	4.51586
696.0000	4.51306
696.5000	4.45893
697.0000	4.37499
697.5000	4.28733
698.0000	4.23523
698.5000	4.10683
699.0000	4.08094
699.5000	4.04385
700.0000	4.01897

##### Extended Information
[コメント情報]
試料名
コメント
測定者
所属
会社	関西大学

[データ情報]
作成日時	2025/05/11 20:06

データタイプ	等間隔データ
横軸	Wavelength [nm]
縦軸	Int.
スタート	422 nm
エンド	700 nm
データ間隔	0.5 nm
データ数	557     

[測定情報]
機種名	FP-8300
シリアル番号	C037361450
  Ex側フォルダ	なし
  Em側フォルダ	なし

付属品名	SCE-846
付属品シリアルNo.	C037361450

測定日時	2025/05/11 20:06

測定モード	蛍光
励起側バンド幅	5 nm
蛍光側バンド幅	5 nm
レスポンス	0.1 sec
感度	Low
測定範囲	422 - 700 nm
データ取込間隔	0.5 nm
励起波長	422.0 nm
走査速度	500 nm/min
オートゲイン	Off
自動シャッタ制御	測定時のみ開く
光源	キセノンランプ
フィルタ	交換時にスキャンを停止する
ブランク補正	Off

