TITLE	
DATA TYPE	FLUORESCENCE SPECTRUM
ORIGIN	JASCO
OWNER	
DATE	25/04/16
TIME	23:03:41
SPECTROMETER/DATA SYSTEM	
LOCALE	1041
RESOLUTION	
DELTAX	0.5
XUNITS	NANOMETERS
YUNITS	INTENSITY
FIRSTX	  422.0000
LASTX	  700.0000
NPOINTS	     557
FIRSTY	    41.79215
MAXY	  2085.72021
MINY	     4.32244
XYDATA
422.0000	41.7921
422.5000	36.971
423.0000	31.425
423.5000	26.2321
424.0000	21.0198
424.5000	16.0482
425.0000	12.1565
425.5000	8.97138
426.0000	6.83891
426.5000	5.43087
427.0000	4.69812
427.5000	4.43443
428.0000	4.32244
428.5000	4.4428
429.0000	4.66208
429.5000	5.03987
430.0000	5.49937
430.5000	5.97513
431.0000	6.57126
431.5000	7.24811
432.0000	8.00042
432.5000	8.93297
433.0000	10.0844
433.5000	11.4166
434.0000	12.997
434.5000	14.8318
435.0000	16.9348
435.5000	19.3857
436.0000	22.4482
436.5000	26.0401
437.0000	30.1217
437.5000	34.8772
438.0000	40.7028
438.5000	47.2441
439.0000	55.1067
439.5000	64.2039
440.0000	74.3224
440.5000	86.0617
441.0000	99.9464
441.5000	115.541
442.0000	133.735
442.5000	154.204
443.0000	177.313
443.5000	203.512
444.0000	233.65
444.5000	268.029
445.0000	306.444
445.5000	349.753
446.0000	398.535
446.5000	453.223
447.0000	513.703
447.5000	580.969
448.0000	652.281
448.5000	728.918
449.0000	810.906
449.5000	898.092
450.0000	990.993
450.5000	1084.03
451.0000	1177.35
451.5000	1272.48
452.0000	1367.63
452.5000	1461.22
453.0000	1550.43
453.5000	1633.51
454.0000	1709.91
454.5000	1781.84
455.0000	1846.44
455.5000	1903.61
456.0000	1954.2
456.5000	1994.57
457.0000	2028.44
457.5000	2051.83
458.0000	2069.61
458.5000	2081.81
459.0000	2085.72
459.5000	2084.07
460.0000	2076.72
460.5000	2063.69
461.0000	2045.9
461.5000	2027.3
462.0000	2003.68
462.5000	1976.2
463.0000	1943.64
463.5000	1910.03
464.0000	1874.53
464.5000	1837.68
465.0000	1798.79
465.5000	1757.52
466.0000	1715.71
466.5000	1674.43
467.0000	1632.56
467.5000	1590.79
468.0000	1550.66
468.5000	1512.01
469.0000	1472.36
469.5000	1435.39
470.0000	1399.46
470.5000	1366.92
471.0000	1334.84
471.5000	1305.34
472.0000	1278.32
472.5000	1253.5
473.0000	1230.46
473.5000	1210.74
474.0000	1195.44
474.5000	1183.71
475.0000	1173.71
475.5000	1166.65
476.0000	1163.3
476.5000	1163.15
477.0000	1168.62
477.5000	1176.48
478.0000	1187.21
478.5000	1199.97
479.0000	1216.46
479.5000	1236.22
480.0000	1258.45
480.5000	1281.09
481.0000	1305.05
481.5000	1329.58
482.0000	1354.48
482.5000	1379.93
483.0000	1404.97
483.5000	1428.33
484.0000	1451.35
484.5000	1473.35
485.0000	1492.56
485.5000	1511.38
486.0000	1527.72
486.5000	1541.82
487.0000	1555.75
487.5000	1565.47
488.0000	1573.82
488.5000	1577.28
489.0000	1577.89
489.5000	1577.59
490.0000	1570.9
490.5000	1561.34
491.0000	1549.88
491.5000	1534.08
492.0000	1513.45
492.5000	1488.86
493.0000	1462.89
493.5000	1435.2
494.0000	1406.03
494.5000	1373.82
495.0000	1339.15
495.5000	1302.97
496.0000	1264.91
496.5000	1228.48
497.0000	1194.14
497.5000	1160.52
498.0000	1124.33
498.5000	1088.04
499.0000	1054.78
499.5000	1021.95
500.0000	991.659
500.5000	960.17
501.0000	930.697
501.5000	902.869
502.0000	876.824
502.5000	851.804
503.0000	827.121
503.5000	803.652
504.0000	782.868
504.5000	763.781
505.0000	745.831
505.5000	729.177
506.0000	713.063
506.5000	698.527
507.0000	686.383
507.5000	675.638
508.0000	664.347
508.5000	654.626
509.0000	647.046
509.5000	639.668
510.0000	632.734
510.5000	626.656
511.0000	622.453
511.5000	618.625
512.0000	615.795
512.5000	613.384
513.0000	611.104
513.5000	609.513
514.0000	608.805
514.5000	607.555
515.0000	608.083
515.5000	607.682
516.0000	607.459
516.5000	609.683
517.0000	610.98
517.5000	610.758
518.0000	612.16
518.5000	614.263
519.0000	615.755
519.5000	617.233
520.0000	618.189
520.5000	620.433
521.0000	622.228
521.5000	624.296
522.0000	625.334
522.5000	627.751
523.0000	629.54
523.5000	630.161
524.0000	631.018
524.5000	631.907
525.0000	633.732
525.5000	634.839
526.0000	635.965
526.5000	636.294
527.0000	636.435
527.5000	635.981
528.0000	635.901
528.5000	635.264
529.0000	634.464
529.5000	633.226
530.0000	631.566
530.5000	628.342
531.0000	625.95
531.5000	623.628
532.0000	621.203
532.5000	618.169
533.0000	614.088
533.5000	611.995
534.0000	607.307
534.5000	602.904
535.0000	598.451
535.5000	593.835
536.0000	589.176
536.5000	584
537.0000	578.991
537.5000	573.68
538.0000	567.286
538.5000	561.983
539.0000	556.324
539.5000	550.467
540.0000	545.115
540.5000	537.04
541.0000	531.403
541.5000	526.238
542.0000	520.694
542.5000	514.246
543.0000	508.283
543.5000	502.156
544.0000	497.508
544.5000	491.352
545.0000	485.256
545.5000	480.481
546.0000	475.583
546.5000	469.902
547.0000	464.487
547.5000	458.792
548.0000	453.463
548.5000	448.992
549.0000	443.949
549.5000	438.785
550.0000	433.449
550.5000	428.914
551.0000	424.576
551.5000	420.721
552.0000	416.571
552.5000	411.457
553.0000	406.995
553.5000	402.972
554.0000	399.342
554.5000	394.936
555.0000	390.968
555.5000	386.218
556.0000	383.191
556.5000	379.409
557.0000	375.836
557.5000	372.409
558.0000	368.533
558.5000	365.74
559.0000	361.735
559.5000	357.662
560.0000	353.691
560.5000	351.206
561.0000	347.456
561.5000	344.281
562.0000	340.357
562.5000	336.94
563.0000	333.596
563.5000	329.552
564.0000	326.9
564.5000	323.581
565.0000	320.112
565.5000	316.709
566.0000	313.304
566.5000	310.232
567.0000	306.675
567.5000	303.081
568.0000	299.763
568.5000	296.189
569.0000	292.484
569.5000	289.409
570.0000	286.265
570.5000	283.21
571.0000	279.709
571.5000	276.355
572.0000	273.14
572.5000	269.87
573.0000	267.031
573.5000	263.384
574.0000	260.065
574.5000	256.821
575.0000	254.264
575.5000	250.376
576.0000	246.964
576.5000	243.987
577.0000	240.658
577.5000	237.541
578.0000	234.018
578.5000	231.155
579.0000	228.425
579.5000	225.395
580.0000	222.349
580.5000	219.116
581.0000	215.794
581.5000	212.893
582.0000	209.973
582.5000	207.45
583.0000	204.47
583.5000	201.698
584.0000	198.855
584.5000	196.218
585.0000	192.943
585.5000	190.711
586.0000	187.866
586.5000	184.966
587.0000	181.859
587.5000	179.4
588.0000	177.117
588.5000	174.815
589.0000	172.17
589.5000	169.801
590.0000	167.339
590.5000	164.849
591.0000	162.531
591.5000	160.279
592.0000	158.271
592.5000	155.698
593.0000	152.839
593.5000	150.975
594.0000	149.096
594.5000	146.859
595.0000	144.98
595.5000	143.055
596.0000	141.24
596.5000	139.155
597.0000	137.24
597.5000	135.212
598.0000	133.096
598.5000	130.904
599.0000	129.135
599.5000	127.639
600.0000	125.989
600.5000	123.97
601.0000	122.157
601.5000	120.381
602.0000	119.147
602.5000	117.376
603.0000	115.488
603.5000	113.886
604.0000	111.965
604.5000	110.55
605.0000	109.189
605.5000	107.436
606.0000	105.872
606.5000	104.492
607.0000	103.199
607.5000	101.373
608.0000	99.9498
608.5000	98.3539
609.0000	96.9478
609.5000	95.7386
610.0000	94.5936
610.5000	93.2311
611.0000	91.5105
611.5000	90.3031
612.0000	89.189
612.5000	87.6223
613.0000	86.557
613.5000	85.074
614.0000	83.9559
614.5000	82.6167
615.0000	81.4262
615.5000	80.2879
616.0000	79.2573
616.5000	78.06
617.0000	77.0333
617.5000	75.6531
618.0000	74.6345
618.5000	73.5257
619.0000	72.5766
619.5000	71.5228
620.0000	70.5289
620.5000	69.4034
621.0000	68.403
621.5000	67.453
622.0000	66.2699
622.5000	65.1519
623.0000	64.1788
623.5000	63.2218
624.0000	62.211
624.5000	61.1732
625.0000	60.1517
625.5000	59.1113
626.0000	58.4423
626.5000	57.6144
627.0000	56.7653
627.5000	55.9907
628.0000	55.0485
628.5000	53.8594
629.0000	53.0479
629.5000	52.3842
630.0000	51.7169
630.5000	51.0317
631.0000	49.9974
631.5000	49.0566
632.0000	48.348
632.5000	47.6477
633.0000	47.0194
633.5000	46.1157
634.0000	45.3568
634.5000	44.7046
635.0000	43.9075
635.5000	43.3145
636.0000	42.5398
636.5000	42.0012
637.0000	41.0658
637.5000	40.5063
638.0000	39.986
638.5000	39.2443
639.0000	38.7285
639.5000	38.3243
640.0000	37.3713
640.5000	36.5232
641.0000	35.9807
641.5000	35.6663
642.0000	35.232
642.5000	34.4635
643.0000	33.7529
643.5000	33.4134
644.0000	32.8485
644.5000	32.516
645.0000	31.675
645.5000	31.2282
646.0000	30.5754
646.5000	30.0826
647.0000	29.7535
647.5000	29.2807
648.0000	28.978
648.5000	28.4949
649.0000	27.8675
649.5000	27.1943
650.0000	26.9045
650.5000	26.402
651.0000	26.0014
651.5000	25.7477
652.0000	25.2209
652.5000	24.8222
653.0000	24.4963
653.5000	24.0202
654.0000	23.6226
654.5000	23.1637
655.0000	22.9341
655.5000	22.5581
656.0000	22.1039
656.5000	21.7627
657.0000	21.2558
657.5000	20.893
658.0000	20.5997
658.5000	20.1974
659.0000	19.9804
659.5000	19.5965
660.0000	19.2351
660.5000	18.9885
661.0000	18.7748
661.5000	18.4304
662.0000	17.9594
662.5000	17.7419
663.0000	17.4545
663.5000	17.0742
664.0000	16.929
664.5000	16.5421
665.0000	16.1492
665.5000	15.9103
666.0000	15.6978
666.5000	15.6059
667.0000	15.3031
667.5000	14.9594
668.0000	14.7607
668.5000	14.5179
669.0000	14.2382
669.5000	13.9242
670.0000	13.7841
670.5000	13.5287
671.0000	13.3245
671.5000	12.9349
672.0000	12.8096
672.5000	12.5836
673.0000	12.4487
673.5000	12.2208
674.0000	11.8903
674.5000	11.6073
675.0000	11.5109
675.5000	11.4426
676.0000	11.1392
676.5000	10.9549
677.0000	10.6756
677.5000	10.6364
678.0000	10.4778
678.5000	10.4224
679.0000	10.1304
679.5000	9.83149
680.0000	9.72115
680.5000	9.59561
681.0000	9.42791
681.5000	9.19629
682.0000	9.03977
682.5000	8.83072
683.0000	8.76752
683.5000	8.63693
684.0000	8.35391
684.5000	8.27223
685.0000	8.16397
685.5000	8.07368
686.0000	7.89824
686.5000	7.81303
687.0000	7.60158
687.5000	7.53729
688.0000	7.38562
688.5000	7.22033
689.0000	7.07464
689.5000	6.95798
690.0000	6.90673
690.5000	6.74389
691.0000	6.5585
691.5000	6.48827
692.0000	6.38933
692.5000	6.30097
693.0000	6.22884
693.5000	6.12032
694.0000	6.1317
694.5000	5.98215
695.0000	5.82981
695.5000	5.67651
696.0000	5.604
696.5000	5.45256
697.0000	5.4479
697.5000	5.35687
698.0000	5.28681
698.5000	5.16446
699.0000	5.06598
699.5000	4.9603
700.0000	4.81962

##### Extended Information
[コメント情報]
試料名
コメント
測定者
所属
会社	関西大学

[データ情報]
作成日時	2025/04/16 23:03

データタイプ	等間隔データ
横軸	Wavelength [nm]
縦軸	Int.
スタート	422 nm
エンド	700 nm
データ間隔	0.5 nm
データ数	557     

[測定情報]
機種名	FP-8300
シリアル番号	C037361450
  Ex側フォルダ	なし
  Em側フォルダ	なし

付属品名	SCE-846
付属品シリアルNo.	C037361450

測定日時	2025/04/16 23:03

測定モード	蛍光
励起側バンド幅	5 nm
蛍光側バンド幅	5 nm
レスポンス	0.1 sec
感度	Low
測定範囲	422 - 700 nm
データ取込間隔	0.5 nm
励起波長	422.0 nm
走査速度	500 nm/min
オートゲイン	Off
自動シャッタ制御	測定時のみ開く
光源	キセノンランプ
フィルタ	交換時にスキャンを停止する
ブランク補正	Off

