TITLE	
DATA TYPE	FLUORESCENCE SPECTRUM
ORIGIN	JASCO
OWNER	
DATE	25/04/30
TIME	15:55:02
SPECTROMETER/DATA SYSTEM	
LOCALE	1041
RESOLUTION	
DELTAX	0.5
XUNITS	NANOMETERS
YUNITS	INTENSITY
FIRSTX	  422.0000
LASTX	  700.0000
NPOINTS	     557
FIRSTY	   932.05176
MAXY	  1996.98743
MINY	     0.42803
XYDATA
422.0000	932.052
422.5000	840.874
423.0000	729.609
423.5000	606.639
424.0000	483.26
424.5000	366.814
425.0000	265.848
425.5000	181.808
426.0000	117.889
426.5000	72.8595
427.0000	44.7954
427.5000	27.4527
428.0000	16.522
428.5000	11.2825
429.0000	8.97222
429.5000	8.08389
430.0000	7.88416
430.5000	8.16047
431.0000	8.59499
431.5000	9.2109
432.0000	9.79168
432.5000	10.524
433.0000	11.6012
433.5000	12.86
434.0000	14.2506
434.5000	16.0609
435.0000	18.2528
435.5000	20.8052
436.0000	23.7217
436.5000	27.2834
437.0000	31.4813
437.5000	36.0787
438.0000	41.7746
438.5000	48.5639
439.0000	56.5722
439.5000	65.3823
440.0000	75.9213
440.5000	88.2178
441.0000	102.158
441.5000	118.696
442.0000	137.934
442.5000	158.35
443.0000	182.18
443.5000	209.421
444.0000	241.173
444.5000	277.609
445.0000	317.609
445.5000	363.01
446.0000	414.485
446.5000	471.706
447.0000	537.685
447.5000	610.497
448.0000	686.811
448.5000	771.325
449.0000	862.658
449.5000	959.776
450.0000	1060.42
450.5000	1161.64
451.0000	1264.23
451.5000	1364.76
452.0000	1462.25
452.5000	1557.52
453.0000	1644.25
453.5000	1723.78
454.0000	1793.09
454.5000	1852.31
455.0000	1904
455.5000	1943.42
456.0000	1970.6
456.5000	1987.65
457.0000	1996.99
457.5000	1995.1
458.0000	1985.36
458.5000	1972.38
459.0000	1951.66
459.5000	1924.86
460.0000	1893.99
460.5000	1859.98
461.0000	1822.28
461.5000	1782.54
462.0000	1740.41
462.5000	1697.22
463.0000	1650.71
463.5000	1603.16
464.0000	1555.42
464.5000	1507.24
465.0000	1458.7
465.5000	1410.68
466.0000	1363.2
466.5000	1317.44
467.0000	1271.89
467.5000	1226.4
468.0000	1183.92
468.5000	1140.98
469.0000	1102.72
469.5000	1066.1
470.0000	1030.62
470.5000	998.287
471.0000	968.732
471.5000	941.507
472.0000	917.042
472.5000	895.554
473.0000	876.946
473.5000	861.606
474.0000	848.774
474.5000	839.254
475.0000	834.686
475.5000	833.306
476.0000	835.448
476.5000	841.841
477.0000	851.363
477.5000	864.196
478.0000	880.151
478.5000	899.884
479.0000	921.175
479.5000	945.753
480.0000	971.484
480.5000	997.935
481.0000	1025.4
481.5000	1053.23
482.0000	1081.56
482.5000	1109.05
483.0000	1135.28
483.5000	1158.76
484.0000	1181
484.5000	1201.09
485.0000	1217.54
485.5000	1231.79
486.0000	1243.46
486.5000	1252.39
487.0000	1259.14
487.5000	1262.68
488.0000	1261.8
488.5000	1258.55
489.0000	1254.44
489.5000	1244.41
490.0000	1230.51
490.5000	1214.2
491.0000	1193.87
491.5000	1170.35
492.0000	1145.6
492.5000	1117.99
493.0000	1088.08
493.5000	1056.22
494.0000	1023.02
494.5000	989.186
495.0000	952.518
495.5000	917.208
496.0000	883.939
496.5000	850.13
497.0000	815.094
497.5000	779.951
498.0000	747.175
498.5000	715.992
499.0000	685.878
499.5000	656.641
500.0000	628.687
500.5000	601.369
501.0000	575.759
501.5000	551.121
502.0000	528.588
502.5000	508.344
503.0000	487.59
503.5000	467.93
504.0000	450.271
504.5000	433.847
505.0000	417.897
505.5000	404.347
506.0000	391.307
506.5000	379.568
507.0000	369.36
507.5000	359.823
508.0000	351.503
508.5000	343.761
509.0000	337.212
509.5000	331.437
510.0000	326.273
510.5000	322.238
511.0000	317.847
511.5000	315.302
512.0000	313.011
512.5000	311.319
513.0000	310.634
513.5000	310.111
514.0000	309.556
514.5000	309.57
515.0000	310.731
515.5000	311.058
516.0000	311.697
516.5000	312.057
517.0000	313.315
517.5000	314.475
518.0000	315.896
518.5000	317.001
519.0000	318.432
519.5000	319.388
520.0000	320.026
520.5000	320.792
521.0000	321.861
521.5000	322.455
522.0000	323.273
522.5000	323.301
523.0000	324.413
523.5000	324.19
524.0000	323.495
524.5000	322.654
525.0000	321.44
525.5000	320.955
526.0000	319.825
526.5000	318.205
527.0000	315.916
527.5000	313.492
528.0000	311.12
528.5000	308.361
529.0000	305.681
529.5000	302.338
530.0000	299.239
530.5000	295.865
531.0000	291.533
531.5000	287.773
532.0000	283.797
532.5000	279.235
533.0000	274.651
533.5000	269.996
534.0000	265.269
534.5000	260.196
535.0000	254.972
535.5000	250.049
536.0000	245.215
536.5000	240.494
537.0000	235.471
537.5000	229.707
538.0000	224.31
538.5000	219.13
539.0000	213.684
539.5000	208.794
540.0000	204.237
540.5000	198.909
541.0000	194.229
541.5000	189.599
542.0000	185.337
542.5000	180.759
543.0000	176.523
543.5000	172.025
544.0000	167.833
544.5000	164.172
545.0000	160.334
545.5000	156.846
546.0000	153.023
546.5000	149.707
547.0000	146.653
547.5000	143.546
548.0000	140.66
548.5000	138.072
549.0000	135.244
549.5000	132.525
550.0000	130.014
550.5000	127.527
551.0000	125.536
551.5000	123.513
552.0000	121.159
552.5000	119.323
553.0000	117.651
553.5000	115.937
554.0000	114.025
554.5000	112.322
555.0000	111.136
555.5000	109.97
556.0000	108.635
556.5000	106.776
557.0000	105.435
557.5000	104.078
558.0000	102.95
558.5000	101.981
559.0000	100.9
559.5000	99.4256
560.0000	98.2324
560.5000	97.2382
561.0000	96.0631
561.5000	95.0725
562.0000	94.3379
562.5000	92.743
563.0000	91.799
563.5000	90.8086
564.0000	89.9217
564.5000	88.4923
565.0000	87.3475
565.5000	86.4494
566.0000	85.2672
566.5000	83.9824
567.0000	82.9984
567.5000	81.7845
568.0000	80.4459
568.5000	79.2635
569.0000	78.0261
569.5000	76.7355
570.0000	75.4608
570.5000	74.5541
571.0000	73.2909
571.5000	71.87
572.0000	70.6035
572.5000	69.3355
573.0000	68.3108
573.5000	67.0022
574.0000	65.7535
574.5000	64.6559
575.0000	63.4055
575.5000	62.0137
576.0000	61.298
576.5000	60.012
577.0000	58.3628
577.5000	57.2562
578.0000	56.1506
578.5000	54.8986
579.0000	53.9669
579.5000	52.5455
580.0000	51.5448
580.5000	50.2808
581.0000	49.2831
581.5000	48.1793
582.0000	47.1775
582.5000	45.987
583.0000	44.9235
583.5000	44.0823
584.0000	43.2782
584.5000	42.2516
585.0000	41.3227
585.5000	40.5281
586.0000	39.42
586.5000	38.4964
587.0000	37.6302
587.5000	36.8843
588.0000	35.9501
588.5000	35.26
589.0000	34.645
589.5000	33.9607
590.0000	33.2642
590.5000	32.4133
591.0000	31.588
591.5000	30.9777
592.0000	30.4403
592.5000	29.8246
593.0000	29.0959
593.5000	28.4569
594.0000	27.9398
594.5000	27.324
595.0000	26.8592
595.5000	26.3939
596.0000	25.8271
596.5000	25.367
597.0000	24.9326
597.5000	24.4003
598.0000	23.9913
598.5000	23.3181
599.0000	22.843
599.5000	22.5875
600.0000	22.2285
600.5000	21.9256
601.0000	21.3484
601.5000	20.9285
602.0000	20.6161
602.5000	20.2129
603.0000	19.888
603.5000	19.5799
604.0000	19.2552
604.5000	19.0703
605.0000	18.7332
605.5000	18.2525
606.0000	18.0436
606.5000	17.6367
607.0000	17.4339
607.5000	17.2487
608.0000	16.8832
608.5000	16.5608
609.0000	16.2522
609.5000	16.0467
610.0000	15.7603
610.5000	15.607
611.0000	15.2925
611.5000	14.8652
612.0000	14.7305
612.5000	14.4892
613.0000	14.3558
613.5000	14.0505
614.0000	13.7879
614.5000	13.5113
615.0000	13.442
615.5000	13.1415
616.0000	13.0117
616.5000	12.8117
617.0000	12.4423
617.5000	12.1617
618.0000	12.1539
618.5000	11.8786
619.0000	11.6009
619.5000	11.3657
620.0000	11.1628
620.5000	11.0062
621.0000	10.853
621.5000	10.7491
622.0000	10.4119
622.5000	10.3449
623.0000	10.1058
623.5000	9.9382
624.0000	9.74564
624.5000	9.63084
625.0000	9.40922
625.5000	9.28552
626.0000	9.00589
626.5000	8.89402
627.0000	8.77567
627.5000	8.54553
628.0000	8.40473
628.5000	8.2883
629.0000	8.13765
629.5000	7.8634
630.0000	7.71226
630.5000	7.64489
631.0000	7.42286
631.5000	7.20154
632.0000	7.16561
632.5000	6.95486
633.0000	6.87581
633.5000	6.74181
634.0000	6.68942
634.5000	6.54836
635.0000	6.45814
635.5000	6.31187
636.0000	6.10163
636.5000	6.00017
637.0000	5.86064
637.5000	5.79579
638.0000	5.75493
638.5000	5.54445
639.0000	5.33275
639.5000	5.28309
640.0000	5.29785
640.5000	5.17065
641.0000	5.04359
641.5000	4.92947
642.0000	4.9262
642.5000	4.77578
643.0000	4.67999
643.5000	4.50937
644.0000	4.42548
644.5000	4.33815
645.0000	4.28208
645.5000	4.18588
646.0000	4.13886
646.5000	4.04243
647.0000	3.95155
647.5000	3.9325
648.0000	3.90899
648.5000	3.76159
649.0000	3.6869
649.5000	3.62129
650.0000	3.58388
650.5000	3.50719
651.0000	3.48938
651.5000	3.4015
652.0000	3.29451
652.5000	3.22692
653.0000	3.10651
653.5000	3.06253
654.0000	3.01775
654.5000	2.96174
655.0000	2.97142
655.5000	2.87939
656.0000	2.82856
656.5000	2.77583
657.0000	2.68981
657.5000	2.6733
658.0000	2.6115
658.5000	2.56251
659.0000	2.52069
659.5000	2.46634
660.0000	2.44078
660.5000	2.32291
661.0000	2.3463
661.5000	2.29145
662.0000	2.2298
662.5000	2.14816
663.0000	2.1343
663.5000	2.1194
664.0000	2.08101
664.5000	2.02926
665.0000	1.98881
665.5000	1.9218
666.0000	1.93468
666.5000	1.96667
667.0000	1.90206
667.5000	1.85197
668.0000	1.78426
668.5000	1.70354
669.0000	1.72133
669.5000	1.68489
670.0000	1.58209
670.5000	1.56489
671.0000	1.59794
671.5000	1.55217
672.0000	1.51114
672.5000	1.50193
673.0000	1.45384
673.5000	1.40847
674.0000	1.39238
674.5000	1.3685
675.0000	1.33918
675.5000	1.31819
676.0000	1.32404
676.5000	1.338
677.0000	1.27489
677.5000	1.19797
678.0000	1.20602
678.5000	1.17659
679.0000	1.18152
679.5000	1.15352
680.0000	1.0575
680.5000	1.04963
681.0000	1.04965
681.5000	1.02602
682.0000	0.997185
682.5000	1.02446
683.0000	0.982615
683.5000	0.961737
684.0000	0.93545
684.5000	0.912954
685.0000	0.905787
685.5000	0.853157
686.0000	0.872759
686.5000	0.810134
687.0000	0.750954
687.5000	0.793702
688.0000	0.776335
688.5000	0.752804
689.0000	0.769204
689.5000	0.713383
690.0000	0.702329
690.5000	0.704837
691.0000	0.712826
691.5000	0.637123
692.0000	0.633942
692.5000	0.65942
693.0000	0.657045
693.5000	0.648432
694.0000	0.604407
694.5000	0.575185
695.0000	0.538766
695.5000	0.515418
696.0000	0.528731
696.5000	0.515229
697.0000	0.527639
697.5000	0.53141
698.0000	0.481519
698.5000	0.508236
699.0000	0.456293
699.5000	0.444427
700.0000	0.428032

##### Extended Information
[コメント情報]
試料名
コメント
測定者
所属
会社	関西大学

[データ情報]
作成日時	2025/04/30 15:55

データタイプ	等間隔データ
横軸	Wavelength [nm]
縦軸	Int.
スタート	422 nm
エンド	700 nm
データ間隔	0.5 nm
データ数	557     

[測定情報]
機種名	FP-8300
シリアル番号	C037361450
  Ex側フォルダ	なし
  Em側フォルダ	なし

付属品名	SCE-846
付属品シリアルNo.	C037361450

測定日時	2025/04/30 15:55

測定モード	蛍光
励起側バンド幅	5 nm
蛍光側バンド幅	5 nm
レスポンス	0.1 sec
感度	Low
測定範囲	422 - 700 nm
データ取込間隔	0.5 nm
励起波長	422.0 nm
走査速度	500 nm/min
オートゲイン	Off
自動シャッタ制御	測定時のみ開く
光源	キセノンランプ
フィルタ	交換時にスキャンを停止する
ブランク補正	Off

