TITLE	
DATA TYPE	FLUORESCENCE SPECTRUM
ORIGIN	JASCO
OWNER	
DATE	25/03/14
TIME	12:46:00
SPECTROMETER/DATA SYSTEM	
LOCALE	1041
RESOLUTION	
DELTAX	0.5
XUNITS	NANOMETERS
YUNITS	INTENSITY
FIRSTX	  422.0000
LASTX	  700.0000
NPOINTS	     557
FIRSTY	    92.85810
MAXY	    92.85810
MINY	     0.53233
XYDATA
422.0000	92.8581
422.5000	83.1146
423.0000	71.3556
423.5000	59.0863
424.0000	46.5678
424.5000	34.7924
425.0000	24.5546
425.5000	16.7699
426.0000	11.013
426.5000	6.76551
427.0000	4.23376
427.5000	2.5735
428.0000	1.53601
428.5000	1.02515
429.0000	0.798947
429.5000	0.681242
430.0000	0.578055
430.5000	0.532332
431.0000	0.566594
431.5000	0.602544
432.0000	0.578526
432.5000	0.55685
433.0000	0.565256
433.5000	0.561905
434.0000	0.562348
434.5000	0.558182
435.0000	0.582508
435.5000	0.608225
436.0000	0.658813
436.5000	0.667795
437.0000	0.676867
437.5000	0.667888
438.0000	0.67967
438.5000	0.725364
439.0000	0.764703
439.5000	0.788893
440.0000	0.81416
440.5000	0.838164
441.0000	0.848179
441.5000	0.849478
442.0000	0.913808
442.5000	0.954667
443.0000	0.972516
443.5000	1.01369
444.0000	1.0891
444.5000	1.16579
445.0000	1.20184
445.5000	1.20621
446.0000	1.22343
446.5000	1.28119
447.0000	1.35752
447.5000	1.3689
448.0000	1.38382
448.5000	1.44341
449.0000	1.46098
449.5000	1.46856
450.0000	1.48678
450.5000	1.62155
451.0000	1.68324
451.5000	1.65149
452.0000	1.6037
452.5000	1.70866
453.0000	1.75883
453.5000	1.77175
454.0000	1.8223
454.5000	1.81479
455.0000	1.75937
455.5000	1.85539
456.0000	1.91541
456.5000	1.95419
457.0000	1.93907
457.5000	1.95569
458.0000	1.95639
458.5000	2.01216
459.0000	2.08409
459.5000	2.08
460.0000	2.14983
460.5000	2.18572
461.0000	2.09855
461.5000	2.15772
462.0000	2.26004
462.5000	2.25715
463.0000	2.27357
463.5000	2.28333
464.0000	2.32813
464.5000	2.40717
465.0000	2.43591
465.5000	2.40722
466.0000	2.43952
466.5000	2.5094
467.0000	2.57149
467.5000	2.54348
468.0000	2.58881
468.5000	2.71438
469.0000	2.76515
469.5000	2.83539
470.0000	2.85586
470.5000	2.84448
471.0000	2.87364
471.5000	2.89927
472.0000	3.01655
472.5000	3.10739
473.0000	3.132
473.5000	3.11757
474.0000	3.20712
474.5000	3.26913
475.0000	3.24974
475.5000	3.28802
476.0000	3.38661
476.5000	3.39001
477.0000	3.3973
477.5000	3.41027
478.0000	3.48474
478.5000	3.51063
479.0000	3.65998
479.5000	3.66835
480.0000	3.72603
480.5000	3.83155
481.0000	3.82719
481.5000	3.89622
482.0000	3.99882
482.5000	4.01776
483.0000	4.16379
483.5000	4.23396
484.0000	4.19631
484.5000	4.2695
485.0000	4.43133
485.5000	4.49408
486.0000	4.56082
486.5000	4.62486
487.0000	4.72528
487.5000	4.72203
488.0000	4.8655
488.5000	5.01861
489.0000	4.99575
489.5000	5.03386
490.0000	5.12119
490.5000	5.15151
491.0000	5.17089
491.5000	5.22737
492.0000	5.14349
492.5000	5.11333
493.0000	5.15372
493.5000	5.1112
494.0000	5.03455
494.5000	5.0117
495.0000	4.90213
495.5000	4.8401
496.0000	4.78721
496.5000	4.71125
497.0000	4.67757
497.5000	4.51488
498.0000	4.41888
498.5000	4.45288
499.0000	4.38537
499.5000	4.38465
500.0000	4.25372
500.5000	4.17634
501.0000	4.13733
501.5000	4.04675
502.0000	3.9709
502.5000	4.05442
503.0000	4.0783
503.5000	3.96966
504.0000	3.90242
504.5000	3.99457
505.0000	3.91233
505.5000	3.86828
506.0000	3.90397
506.5000	3.88265
507.0000	3.8931
507.5000	3.85481
508.0000	3.93032
508.5000	3.95472
509.0000	3.93306
509.5000	3.94739
510.0000	3.94691
510.5000	3.94346
511.0000	3.96986
511.5000	3.9663
512.0000	3.93947
512.5000	3.97359
513.0000	3.97544
513.5000	4.00978
514.0000	4.01076
514.5000	3.99371
515.0000	4.03501
515.5000	4.08624
516.0000	4.04244
516.5000	4.06499
517.0000	4.04589
517.5000	4.03596
518.0000	4.12313
518.5000	4.23946
519.0000	4.18759
519.5000	4.19219
520.0000	4.25527
520.5000	4.22077
521.0000	4.19486
521.5000	4.20585
522.0000	4.25873
522.5000	4.24939
523.0000	4.22037
523.5000	4.28511
524.0000	4.34912
524.5000	4.33737
525.0000	4.29186
525.5000	4.31539
526.0000	4.49225
526.5000	4.59609
527.0000	4.54246
527.5000	4.52416
528.0000	4.49626
528.5000	4.61752
529.0000	4.63826
529.5000	4.66769
530.0000	4.68184
530.5000	4.69484
531.0000	4.80345
531.5000	4.87921
532.0000	4.6966
532.5000	4.67212
533.0000	4.84248
533.5000	4.94494
534.0000	4.96433
534.5000	4.94899
535.0000	4.97794
535.5000	4.98893
536.0000	4.98126
536.5000	5.04615
537.0000	5.06102
537.5000	5.07154
538.0000	5.09855
538.5000	5.12967
539.0000	5.13541
539.5000	5.11484
540.0000	5.09919
540.5000	5.21784
541.0000	5.13671
541.5000	5.13325
542.0000	5.255
542.5000	5.28821
543.0000	5.24288
543.5000	5.19711
544.0000	5.20686
544.5000	5.23929
545.0000	5.22537
545.5000	5.1915
546.0000	5.20932
546.5000	5.26118
547.0000	5.24457
547.5000	5.31362
548.0000	5.33029
548.5000	5.2687
549.0000	5.24597
549.5000	5.23634
550.0000	5.18388
550.5000	5.22066
551.0000	5.25128
551.5000	5.32322
552.0000	5.25015
552.5000	5.27101
553.0000	5.22146
553.5000	5.13137
554.0000	5.17442
554.5000	5.15447
555.0000	5.07754
555.5000	5.17777
556.0000	5.18039
556.5000	5.05145
557.0000	5.09743
557.5000	5.11166
558.0000	5.09884
558.5000	5.04933
559.0000	5.05653
559.5000	5.08332
560.0000	5.00474
560.5000	5.00716
561.0000	5.09173
561.5000	5.02887
562.0000	4.92625
562.5000	4.94642
563.0000	4.95661
563.5000	4.83214
564.0000	4.9482
564.5000	4.91507
565.0000	4.81664
565.5000	4.77499
566.0000	4.74238
566.5000	4.74168
567.0000	4.68283
567.5000	4.72064
568.0000	4.75618
568.5000	4.80758
569.0000	4.68029
569.5000	4.61701
570.0000	4.56682
570.5000	4.53915
571.0000	4.56101
571.5000	4.50052
572.0000	4.51254
572.5000	4.49785
573.0000	4.49198
573.5000	4.44091
574.0000	4.36115
574.5000	4.34964
575.0000	4.36556
575.5000	4.37546
576.0000	4.26624
576.5000	4.21019
577.0000	4.10629
577.5000	4.11487
578.0000	4.18948
578.5000	4.17329
579.0000	4.13281
579.5000	4.18282
580.0000	4.12736
580.5000	4.06908
581.0000	4.10734
581.5000	4.05546
582.0000	3.93256
582.5000	3.92687
583.0000	3.96198
583.5000	3.908
584.0000	3.84608
584.5000	3.85038
585.0000	3.86847
585.5000	3.80275
586.0000	3.83223
586.5000	3.70204
587.0000	3.70472
587.5000	3.68529
588.0000	3.65316
588.5000	3.64375
589.0000	3.59887
589.5000	3.55905
590.0000	3.5222
590.5000	3.55442
591.0000	3.51676
591.5000	3.5326
592.0000	3.4961
592.5000	3.53294
593.0000	3.47682
593.5000	3.34872
594.0000	3.39447
594.5000	3.32392
595.0000	3.33543
595.5000	3.40264
596.0000	3.33938
596.5000	3.25083
597.0000	3.20946
597.5000	3.20559
598.0000	3.18897
598.5000	3.1783
599.0000	3.18845
599.5000	3.15898
600.0000	3.06235
600.5000	3.06847
601.0000	3.05027
601.5000	3.03016
602.0000	2.99967
602.5000	2.92004
603.0000	2.96758
603.5000	2.95665
604.0000	2.89906
604.5000	2.88595
605.0000	2.88999
605.5000	2.91002
606.0000	2.84556
606.5000	2.79596
607.0000	2.82516
607.5000	2.77993
608.0000	2.71806
608.5000	2.69696
609.0000	2.67305
609.5000	2.67585
610.0000	2.62341
610.5000	2.59996
611.0000	2.601
611.5000	2.56809
612.0000	2.54916
612.5000	2.51463
613.0000	2.4924
613.5000	2.44855
614.0000	2.50122
614.5000	2.4907
615.0000	2.44492
615.5000	2.42063
616.0000	2.40144
616.5000	2.34754
617.0000	2.38024
617.5000	2.34544
618.0000	2.31502
618.5000	2.29968
619.0000	2.30676
619.5000	2.28002
620.0000	2.26618
620.5000	2.26387
621.0000	2.22635
621.5000	2.19027
622.0000	2.14284
622.5000	2.13787
623.0000	2.15548
623.5000	2.09346
624.0000	2.11081
624.5000	2.07328
625.0000	2.07297
625.5000	2.0372
626.0000	2.0181
626.5000	1.99818
627.0000	2.00614
627.5000	1.97731
628.0000	1.90877
628.5000	1.9464
629.0000	1.92488
629.5000	1.88558
630.0000	1.87795
630.5000	1.87719
631.0000	1.85807
631.5000	1.92688
632.0000	1.88284
632.5000	1.86718
633.0000	1.83081
633.5000	1.84957
634.0000	1.78352
634.5000	1.72158
635.0000	1.71945
635.5000	1.76849
636.0000	1.74691
636.5000	1.67988
637.0000	1.68589
637.5000	1.67646
638.0000	1.60468
638.5000	1.68632
639.0000	1.65489
639.5000	1.65539
640.0000	1.59471
640.5000	1.57298
641.0000	1.59282
641.5000	1.56792
642.0000	1.55
642.5000	1.49437
643.0000	1.48169
643.5000	1.50558
644.0000	1.50838
644.5000	1.46989
645.0000	1.50903
645.5000	1.44892
646.0000	1.46723
646.5000	1.43638
647.0000	1.40701
647.5000	1.41133
648.0000	1.39329
648.5000	1.36419
649.0000	1.35548
649.5000	1.34305
650.0000	1.36208
650.5000	1.38877
651.0000	1.35184
651.5000	1.32251
652.0000	1.29984
652.5000	1.27083
653.0000	1.25755
653.5000	1.1955
654.0000	1.23161
654.5000	1.24667
655.0000	1.18684
655.5000	1.19293
656.0000	1.17261
656.5000	1.17102
657.0000	1.15962
657.5000	1.15035
658.0000	1.15138
658.5000	1.15532
659.0000	1.17026
659.5000	1.10202
660.0000	1.08344
660.5000	1.09839
661.0000	1.10674
661.5000	1.0937
662.0000	1.05006
662.5000	1.03903
663.0000	1.03691
663.5000	1.07921
664.0000	1.07354
664.5000	1.0406
665.0000	1.0319
665.5000	1.0292
666.0000	0.978863
666.5000	0.991485
667.0000	0.982187
667.5000	0.98267
668.0000	0.983521
668.5000	0.95368
669.0000	0.975894
669.5000	0.960446
670.0000	0.910414
670.5000	0.925997
671.0000	0.931592
671.5000	0.914928
672.0000	0.907863
672.5000	0.924262
673.0000	0.914213
673.5000	0.859309
674.0000	0.905003
674.5000	0.865702
675.0000	0.890085
675.5000	0.843744
676.0000	0.821989
676.5000	0.83076
677.0000	0.844799
677.5000	0.847544
678.0000	0.850296
678.5000	0.870329
679.0000	0.815441
679.5000	0.821012
680.0000	0.798537
680.5000	0.796604
681.0000	0.803127
681.5000	0.793349
682.0000	0.754497
682.5000	0.797958
683.0000	0.786939
683.5000	0.745531
684.0000	0.752505
684.5000	0.75037
685.0000	0.717042
685.5000	0.742214
686.0000	0.741186
686.5000	0.728961
687.0000	0.736827
687.5000	0.725188
688.0000	0.724019
688.5000	0.731951
689.0000	0.697804
689.5000	0.694948
690.0000	0.695476
690.5000	0.72486
691.0000	0.710012
691.5000	0.667307
692.0000	0.70823
692.5000	0.669787
693.0000	0.633109
693.5000	0.609464
694.0000	0.63561
694.5000	0.647116
695.0000	0.664607
695.5000	0.664714
696.0000	0.606012
696.5000	0.616331
697.0000	0.61328
697.5000	0.583066
698.0000	0.627736
698.5000	0.611042
699.0000	0.609955
699.5000	0.574902
700.0000	0.541452

##### Extended Information
[コメント情報]
試料名
コメント
測定者
所属
会社	関西大学

[データ情報]
作成日時	2025/03/14 12:46

データタイプ	等間隔データ
横軸	Wavelength [nm]
縦軸	Int.
スタート	422 nm
エンド	700 nm
データ間隔	0.5 nm
データ数	557     

[測定情報]
機種名	FP-8300
シリアル番号	C037361450
  Ex側フォルダ	なし
  Em側フォルダ	なし

付属品名	SCE-846
付属品シリアルNo.	C037361450

測定日時	2025/03/14 12:45

測定モード	蛍光
励起側バンド幅	5 nm
蛍光側バンド幅	5 nm
レスポンス	0.1 sec
感度	Low
測定範囲	422 - 700 nm
データ取込間隔	0.5 nm
励起波長	422.0 nm
走査速度	500 nm/min
オートゲイン	Off
自動シャッタ制御	測定時のみ開く
光源	キセノンランプ
フィルタ	交換時にスキャンを停止する
ブランク補正	Off

