TITLE	
DATA TYPE	FLUORESCENCE SPECTRUM
ORIGIN	JASCO
OWNER	
DATE	25/05/07
TIME	19:56:03
SPECTROMETER/DATA SYSTEM	
LOCALE	1041
RESOLUTION	
DELTAX	0.5
XUNITS	NANOMETERS
YUNITS	INTENSITY
FIRSTX	  422.0000
LASTX	  700.0000
NPOINTS	     557
FIRSTY	   167.87009
MAXY	  1175.78149
MINY	     1.65812
XYDATA
422.0000	167.87
422.5000	146.74
423.0000	123.559
423.5000	100.503
424.0000	77.1635
424.5000	56.173
425.0000	39.2799
425.5000	26.3611
426.0000	17.4381
426.5000	11.3512
427.0000	7.83034
427.5000	5.63214
428.0000	4.42943
428.5000	3.9797
429.0000	3.84767
429.5000	3.96532
430.0000	4.33451
430.5000	4.68586
431.0000	4.93725
431.5000	5.31452
432.0000	5.82157
432.5000	6.32893
433.0000	6.9945
433.5000	7.83845
434.0000	8.747
434.5000	9.84669
435.0000	11.1329
435.5000	12.7063
436.0000	14.6284
436.5000	16.7972
437.0000	19.2145
437.5000	22.251
438.0000	25.6338
438.5000	29.7184
439.0000	34.8956
439.5000	40.1176
440.0000	46.2365
440.5000	53.579
441.0000	62.0367
441.5000	71.7275
442.0000	82.7482
442.5000	95.4882
443.0000	109.687
443.5000	125.879
444.0000	144.417
444.5000	165.892
445.0000	189.56
445.5000	215.908
446.0000	246.192
446.5000	280.419
447.0000	317.993
447.5000	359.249
448.0000	402.848
448.5000	450.99
449.0000	503.076
449.5000	557.4
450.0000	614.013
450.5000	670.915
451.0000	728.196
451.5000	784.406
452.0000	840.262
452.5000	895.542
453.0000	946.857
453.5000	992.663
454.0000	1033.37
454.5000	1070.36
455.0000	1101.78
455.5000	1126.57
456.0000	1146.37
456.5000	1161.26
457.0000	1171.19
457.5000	1175.78
458.0000	1174.93
458.5000	1169.63
459.0000	1162.27
459.5000	1151.46
460.0000	1137.9
460.5000	1122.46
461.0000	1103.85
461.5000	1083.72
462.0000	1062.13
462.5000	1038.27
463.0000	1013.55
463.5000	988.867
464.0000	964.542
464.5000	938.131
465.0000	911.719
465.5000	885.985
466.0000	858.087
466.5000	832.337
467.0000	807.955
467.5000	781.966
468.0000	758.264
468.5000	733.798
469.0000	710.318
469.5000	690.127
470.0000	671.245
470.5000	652.177
471.0000	635.93
471.5000	618.811
472.0000	604.151
472.5000	591.424
473.0000	580.822
473.5000	571.796
474.0000	563.492
474.5000	556.889
475.0000	553.288
475.5000	552.102
476.0000	552.208
476.5000	554.192
477.0000	557.823
477.5000	564.842
478.0000	571.222
478.5000	578.893
479.0000	589.829
479.5000	601.684
480.0000	615.429
480.5000	627.442
481.0000	640.78
481.5000	654.341
482.0000	667.005
482.5000	680.156
483.0000	692.802
483.5000	705.047
484.0000	715.928
484.5000	725.125
485.0000	733.329
485.5000	740.54
486.0000	746.693
486.5000	751.111
487.0000	753.206
487.5000	754.594
488.0000	755.233
488.5000	753.245
489.0000	749.885
489.5000	745.398
490.0000	737.537
490.5000	728.098
491.0000	717.956
491.5000	704.539
492.0000	692.108
492.5000	677.726
493.0000	659.36
493.5000	641.294
494.0000	623.833
494.5000	604.608
495.0000	585.411
495.5000	564.313
496.0000	543.954
496.5000	524.727
497.0000	505.251
497.5000	485.292
498.0000	466.631
498.5000	448.351
499.0000	431.032
499.5000	414.429
500.0000	399.136
500.5000	382.79
501.0000	367.657
501.5000	353.394
502.0000	340.238
502.5000	327.396
503.0000	315.471
503.5000	304.437
504.0000	293.719
504.5000	284.01
505.0000	276.084
505.5000	267.753
506.0000	259.975
506.5000	253.718
507.0000	247.174
507.5000	241.696
508.0000	236.566
508.5000	231.714
509.0000	227.474
509.5000	224.212
510.0000	220.867
510.5000	217.876
511.0000	215.652
511.5000	213.67
512.0000	211.975
512.5000	210.256
513.0000	208.57
513.5000	207.798
514.0000	207.614
514.5000	206.631
515.0000	206.371
515.5000	205.982
516.0000	205.814
516.5000	205.786
517.0000	205.767
517.5000	206.167
518.0000	206.526
518.5000	206.046
519.0000	206.085
519.5000	206.314
520.0000	206.374
520.5000	206.447
521.0000	206.404
521.5000	206.885
522.0000	206.876
522.5000	206.623
523.0000	206.469
523.5000	206.398
524.0000	205.999
524.5000	205.534
525.0000	205.082
525.5000	204.091
526.0000	203.672
526.5000	203.504
527.0000	202.793
527.5000	202.256
528.0000	201.102
528.5000	199.544
529.0000	198.067
529.5000	196.915
530.0000	195.876
530.5000	194.255
531.0000	192.316
531.5000	190.692
532.0000	188.92
532.5000	187.274
533.0000	184.978
533.5000	183.147
534.0000	180.731
534.5000	178.472
535.0000	176.554
535.5000	174.445
536.0000	172.226
536.5000	170.15
537.0000	167.376
537.5000	164.878
538.0000	162.364
538.5000	160.38
539.0000	158.07
539.5000	156.35
540.0000	154.285
540.5000	150.453
541.0000	148.625
541.5000	146.559
542.0000	144.489
542.5000	141.914
543.0000	139.963
543.5000	137.949
544.0000	136.252
544.5000	134.161
545.0000	132.513
545.5000	130.733
546.0000	129.026
546.5000	127.513
547.0000	126.079
547.5000	124.671
548.0000	123.492
548.5000	121.722
549.0000	120.444
549.5000	119.472
550.0000	118.145
550.5000	116.471
551.0000	115.092
551.5000	114.565
552.0000	113.9
552.5000	112.66
553.0000	111.474
553.5000	110.347
554.0000	109.889
554.5000	108.935
555.0000	107.903
555.5000	106.967
556.0000	106.389
556.5000	105.827
557.0000	104.906
557.5000	104.241
558.0000	103.458
558.5000	103.021
559.0000	102.411
559.5000	101.462
560.0000	100.755
560.5000	100.17
561.0000	99.2559
561.5000	98.6178
562.0000	97.9042
562.5000	97.1927
563.0000	96.5658
563.5000	95.9473
564.0000	95.2311
564.5000	94.4158
565.0000	93.3438
565.5000	92.7161
566.0000	92.0701
566.5000	91.2563
567.0000	90.2544
567.5000	89.6141
568.0000	88.6823
568.5000	87.6504
569.0000	87.0046
569.5000	85.9332
570.0000	84.8531
570.5000	83.8388
571.0000	83.0199
571.5000	82.3783
572.0000	81.8483
572.5000	80.979
573.0000	79.9299
573.5000	78.6948
574.0000	77.6911
574.5000	76.8029
575.0000	75.6414
575.5000	75.0139
576.0000	73.972
576.5000	72.9051
577.0000	71.9135
577.5000	70.7432
578.0000	70.2914
578.5000	69.2818
579.0000	68.1026
579.5000	67.178
580.0000	66.5117
580.5000	65.6498
581.0000	64.6542
581.5000	63.44
582.0000	62.7335
582.5000	61.9601
583.0000	60.968
583.5000	59.8868
584.0000	59.0625
584.5000	58.3151
585.0000	57.597
585.5000	56.6074
586.0000	55.7409
586.5000	54.8365
587.0000	54.1496
587.5000	53.2315
588.0000	52.5249
588.5000	51.777
589.0000	50.9487
589.5000	50.3537
590.0000	49.609
590.5000	48.8806
591.0000	48.1845
591.5000	47.5874
592.0000	46.845
592.5000	46.0908
593.0000	45.4153
593.5000	44.8448
594.0000	44.271
594.5000	43.5834
595.0000	42.9784
595.5000	42.1368
596.0000	41.8426
596.5000	41.3265
597.0000	40.7261
597.5000	40.1567
598.0000	39.5891
598.5000	39.0015
599.0000	38.4874
599.5000	37.8716
600.0000	37.2968
600.5000	36.8777
601.0000	36.6123
601.5000	36.0767
602.0000	35.3607
602.5000	34.8421
603.0000	34.4736
603.5000	33.7481
604.0000	33.3824
604.5000	32.9427
605.0000	32.4728
605.5000	32.0455
606.0000	31.5902
606.5000	31.3484
607.0000	30.8174
607.5000	30.3914
608.0000	29.9362
608.5000	29.6403
609.0000	29.2407
609.5000	28.7352
610.0000	28.3021
610.5000	28.0597
611.0000	27.5715
611.5000	27.2204
612.0000	26.9783
612.5000	26.5256
613.0000	26.0846
613.5000	25.7994
614.0000	25.6065
614.5000	25.0533
615.0000	24.5575
615.5000	24.3451
616.0000	23.9754
616.5000	23.4511
617.0000	23.2586
617.5000	22.95
618.0000	22.5517
618.5000	22.3222
619.0000	22.0433
619.5000	21.6447
620.0000	21.4358
620.5000	21.1985
621.0000	20.8074
621.5000	20.5829
622.0000	20.242
622.5000	19.7508
623.0000	19.5471
623.5000	19.1878
624.0000	19.0112
624.5000	18.5726
625.0000	18.2682
625.5000	18.1096
626.0000	17.7563
626.5000	17.6415
627.0000	17.1947
627.5000	16.8233
628.0000	16.6896
628.5000	16.4415
629.0000	16.2036
629.5000	15.9138
630.0000	15.7347
630.5000	15.4606
631.0000	15.1432
631.5000	14.9208
632.0000	14.7715
632.5000	14.5393
633.0000	14.338
633.5000	14.0681
634.0000	13.8795
634.5000	13.5321
635.0000	13.452
635.5000	13.3491
636.0000	13.0495
636.5000	12.8734
637.0000	12.5909
637.5000	12.4049
638.0000	12.1333
638.5000	11.9256
639.0000	11.7832
639.5000	11.5428
640.0000	11.3344
640.5000	11.1818
641.0000	10.953
641.5000	10.8438
642.0000	10.8722
642.5000	10.6252
643.0000	10.3062
643.5000	10.1634
644.0000	9.9927
644.5000	9.89994
645.0000	9.76248
645.5000	9.5804
646.0000	9.43163
646.5000	9.30724
647.0000	9.17026
647.5000	9.08027
648.0000	8.91095
648.5000	8.70924
649.0000	8.54621
649.5000	8.42401
650.0000	8.24294
650.5000	8.17528
651.0000	8.08484
651.5000	8.0094
652.0000	7.88844
652.5000	7.58998
653.0000	7.4872
653.5000	7.51317
654.0000	7.35978
654.5000	7.20111
655.0000	7.09822
655.5000	7.05046
656.0000	6.9032
656.5000	6.74127
657.0000	6.67661
657.5000	6.6317
658.0000	6.5964
658.5000	6.34385
659.0000	6.21201
659.5000	6.11905
660.0000	6.07813
660.5000	5.98382
661.0000	5.83002
661.5000	5.6877
662.0000	5.61735
662.5000	5.56973
663.0000	5.50941
663.5000	5.34934
664.0000	5.29933
664.5000	5.16425
665.0000	5.11278
665.5000	5.00504
666.0000	4.93716
666.5000	4.87357
667.0000	4.77547
667.5000	4.68877
668.0000	4.56426
668.5000	4.52413
669.0000	4.45511
669.5000	4.51082
670.0000	4.36086
670.5000	4.20452
671.0000	4.19796
671.5000	4.152
672.0000	4.05979
672.5000	3.96658
673.0000	3.95445
673.5000	3.87736
674.0000	3.82303
674.5000	3.80713
675.0000	3.70515
675.5000	3.62686
676.0000	3.5499
676.5000	3.52731
677.0000	3.4622
677.5000	3.39158
678.0000	3.37264
678.5000	3.25823
679.0000	3.15664
679.5000	3.133
680.0000	3.13824
680.5000	3.10908
681.0000	3.08763
681.5000	3.00673
682.0000	2.92498
682.5000	2.86181
683.0000	2.86386
683.5000	2.82018
684.0000	2.80243
684.5000	2.6669
685.0000	2.64853
685.5000	2.65881
686.0000	2.57939
686.5000	2.55227
687.0000	2.47381
687.5000	2.40514
688.0000	2.34701
688.5000	2.33879
689.0000	2.30009
689.5000	2.23383
690.0000	2.26234
690.5000	2.23759
691.0000	2.20408
691.5000	2.21449
692.0000	2.13329
692.5000	2.07628
693.0000	2.05248
693.5000	2.03202
694.0000	1.99501
694.5000	1.9717
695.0000	1.9565
695.5000	1.95275
696.0000	1.885
696.5000	1.84333
697.0000	1.85167
697.5000	1.84905
698.0000	1.79052
698.5000	1.7052
699.0000	1.6913
699.5000	1.686
700.0000	1.65812

##### Extended Information
[コメント情報]
試料名
コメント
測定者
所属
会社	関西大学

[データ情報]
作成日時	2025/05/07 19:56

データタイプ	等間隔データ
横軸	Wavelength [nm]
縦軸	Int.
スタート	422 nm
エンド	700 nm
データ間隔	0.5 nm
データ数	557     

[測定情報]
機種名	FP-8300
シリアル番号	C037361450
  Ex側フォルダ	なし
  Em側フォルダ	なし

付属品名	SCE-846
付属品シリアルNo.	C037361450

測定日時	2025/05/07 19:56

測定モード	蛍光
励起側バンド幅	5 nm
蛍光側バンド幅	5 nm
レスポンス	0.1 sec
感度	Low
測定範囲	422 - 700 nm
データ取込間隔	0.5 nm
励起波長	422.0 nm
走査速度	500 nm/min
オートゲイン	Off
自動シャッタ制御	測定時のみ開く
光源	キセノンランプ
フィルタ	交換時にスキャンを停止する
ブランク補正	Off

