TITLE	
DATA TYPE	FLUORESCENCE SPECTRUM
ORIGIN	JASCO
OWNER	
DATE	25/04/16
TIME	23:28:00
SPECTROMETER/DATA SYSTEM	
LOCALE	1041
RESOLUTION	
DELTAX	0.5
XUNITS	NANOMETERS
YUNITS	INTENSITY
FIRSTX	  422.0000
LASTX	  700.0000
NPOINTS	     557
FIRSTY	    78.17536
MAXY	  1048.14807
MINY	     2.61458
XYDATA
422.0000	78.1754
422.5000	69.8574
423.0000	59.4285
423.5000	48.6514
424.0000	38.2629
424.5000	28.715
425.0000	20.4414
425.5000	14.3288
426.0000	9.82264
426.5000	6.76344
427.0000	4.8774
427.5000	3.77248
428.0000	3.17813
428.5000	2.96606
429.0000	2.94323
429.5000	3.00695
430.0000	3.15127
430.5000	3.46136
431.0000	3.73497
431.5000	4.16312
432.0000	4.64024
432.5000	5.05097
433.0000	5.75012
433.5000	6.47893
434.0000	7.30259
434.5000	8.29563
435.0000	9.43863
435.5000	10.7026
436.0000	12.4558
436.5000	14.4163
437.0000	16.6411
437.5000	19.3614
438.0000	22.4293
438.5000	26.1734
439.0000	30.4575
439.5000	35.4167
440.0000	41.0103
440.5000	47.3462
441.0000	54.4483
441.5000	63.0208
442.0000	72.8448
442.5000	84.0429
443.0000	96.4443
443.5000	110.295
444.0000	126.603
444.5000	145.529
445.0000	165.77
445.5000	188.798
446.0000	215.174
446.5000	243.749
447.0000	276.065
447.5000	311.115
448.0000	349.361
448.5000	389.96
449.0000	432.961
449.5000	478.46
450.0000	526.008
450.5000	573.581
451.0000	621.19
451.5000	669.309
452.0000	716.497
452.5000	762.433
453.0000	807.221
453.5000	848.561
454.0000	885.737
454.5000	918.861
455.0000	949.889
455.5000	975.136
456.0000	996.796
456.5000	1015.1
457.0000	1029.02
457.5000	1037.99
458.0000	1044.74
458.5000	1048.15
459.0000	1047.13
459.5000	1042.86
460.0000	1037.67
460.5000	1027.54
461.0000	1016.13
461.5000	1004.73
462.0000	989.531
462.5000	971.971
463.0000	954.637
463.5000	935.829
464.0000	915.362
464.5000	895.823
465.0000	874.139
465.5000	852.443
466.0000	830.279
466.5000	806.586
467.0000	784.514
467.5000	763.179
468.0000	741.417
468.5000	720.767
469.0000	701.303
469.5000	681.871
470.0000	664.391
470.5000	647.131
471.0000	630.46
471.5000	615.739
472.0000	601.491
472.5000	588.915
473.0000	578.463
473.5000	568.441
474.0000	562.274
474.5000	556.649
475.0000	551.146
475.5000	548.672
476.0000	548.779
476.5000	549.548
477.0000	553.178
477.5000	557.649
478.0000	564.233
478.5000	570.856
479.0000	580.247
479.5000	590.102
480.0000	600.707
480.5000	612.438
481.0000	625.973
481.5000	638.043
482.0000	650.456
482.5000	662.505
483.0000	674.027
483.5000	686.063
484.0000	696.558
484.5000	707.029
485.0000	715.619
485.5000	724.501
486.0000	731.664
486.5000	736.621
487.0000	741.616
487.5000	744.256
488.0000	746.732
488.5000	747.386
489.0000	746.617
489.5000	743.564
490.0000	738.349
490.5000	732.849
491.0000	726.2
491.5000	715.912
492.0000	704.112
492.5000	690.876
493.0000	676.587
493.5000	661.832
494.0000	645.699
494.5000	629.159
495.0000	611.197
495.5000	592.36
496.0000	574.488
496.5000	557.017
497.0000	539.132
497.5000	520.829
498.0000	503.286
498.5000	485.817
499.0000	469.71
499.5000	453.545
500.0000	437.827
500.5000	422.738
501.0000	408.602
501.5000	395.017
502.0000	382.477
502.5000	369.207
503.0000	357.822
503.5000	347.033
504.0000	336.462
504.5000	326.516
505.0000	317.981
505.5000	310.795
506.0000	303.49
506.5000	296.919
507.0000	290.647
507.5000	285.015
508.0000	280.178
508.5000	275.652
509.0000	272.157
509.5000	268.614
510.0000	265.058
510.5000	262.804
511.0000	260.442
511.5000	258.582
512.0000	256.789
512.5000	255.899
513.0000	255.135
513.5000	254.211
514.0000	254.015
514.5000	253.509
515.0000	253.245
515.5000	253.528
516.0000	254.099
516.5000	254.309
517.0000	254.892
517.5000	255.659
518.0000	256.189
518.5000	256.733
519.0000	257.436
519.5000	258.121
520.0000	259.023
520.5000	259.579
521.0000	259.91
521.5000	261.411
522.0000	261.742
522.5000	262.515
523.0000	263.724
523.5000	263.931
524.0000	264.038
524.5000	264.55
525.0000	264.883
525.5000	264.546
526.0000	264.763
526.5000	264.764
527.0000	264.506
527.5000	264.063
528.0000	263.633
528.5000	263.39
529.0000	262.882
529.5000	262.523
530.0000	261.899
530.5000	261.044
531.0000	259.2
531.5000	258.351
532.0000	256.946
532.5000	254.884
533.0000	253.063
533.5000	251.726
534.0000	250.079
534.5000	248.221
535.0000	246.177
535.5000	244.177
536.0000	241.716
536.5000	239.095
537.0000	237.263
537.5000	234.821
538.0000	232.573
538.5000	230.508
539.0000	227.975
539.5000	224.978
540.0000	222.084
540.5000	219.694
541.0000	216.866
541.5000	214.941
542.0000	212.795
542.5000	209.93
543.0000	207.828
543.5000	205.88
544.0000	203.079
544.5000	201.084
545.0000	198.602
545.5000	196.1
546.0000	194.184
546.5000	192.319
547.0000	190.133
547.5000	187.633
548.0000	185.787
548.5000	184.642
549.0000	182.791
549.5000	180.591
550.0000	178.472
550.5000	176.95
551.0000	175.635
551.5000	173.914
552.0000	171.984
552.5000	170.391
553.0000	169.306
553.5000	167.416
554.0000	165.422
554.5000	164.461
555.0000	163.153
555.5000	161.445
556.0000	159.86
556.5000	158.456
557.0000	157.458
557.5000	156.519
558.0000	155.023
558.5000	153.895
559.0000	152.266
559.5000	151.076
560.0000	150.121
560.5000	148.896
561.0000	147.277
561.5000	146.293
562.0000	145.311
562.5000	143.796
563.0000	142.417
563.5000	141.213
564.0000	140.152
564.5000	138.827
565.0000	137.611
565.5000	136.4
566.0000	134.918
566.5000	133.749
567.0000	132.181
567.5000	130.95
568.0000	130.185
568.5000	128.68
569.0000	127.312
569.5000	125.901
570.0000	124.749
570.5000	123.391
571.0000	122.068
571.5000	121.005
572.0000	119.513
572.5000	118.57
573.0000	117.085
573.5000	115.781
574.0000	114.331
574.5000	112.956
575.0000	111.53
575.5000	110.032
576.0000	108.799
576.5000	108.143
577.0000	106.558
577.5000	105.25
578.0000	103.871
578.5000	102.823
579.0000	101.698
579.5000	100.331
580.0000	98.9888
580.5000	97.7119
581.0000	96.4092
581.5000	95.2964
582.0000	94.0754
582.5000	92.6418
583.0000	91.5197
583.5000	90.4849
584.0000	89.1691
584.5000	87.8604
585.0000	86.9638
585.5000	85.6343
586.0000	84.477
586.5000	83.3798
587.0000	82.2085
587.5000	81.1623
588.0000	80.4975
588.5000	79.6441
589.0000	78.4731
589.5000	77.3597
590.0000	76.2853
590.5000	74.8982
591.0000	74.0678
591.5000	73.3309
592.0000	72.3429
592.5000	71.2395
593.0000	70.2274
593.5000	69.2183
594.0000	68.5153
594.5000	67.5541
595.0000	66.6254
595.5000	65.9698
596.0000	64.9987
596.5000	64.2418
597.0000	63.2683
597.5000	62.3917
598.0000	61.6058
598.5000	60.8932
599.0000	60.0437
599.5000	59.0883
600.0000	58.3015
600.5000	57.8499
601.0000	57.1584
601.5000	56.3601
602.0000	55.5163
602.5000	54.8394
603.0000	54.1831
603.5000	53.6224
604.0000	52.8045
604.5000	52.1352
605.0000	51.549
605.5000	50.7269
606.0000	50.1234
606.5000	49.4124
607.0000	48.6167
607.5000	48.0532
608.0000	47.4732
608.5000	46.9349
609.0000	46.4839
609.5000	45.6601
610.0000	44.7096
610.5000	44.3478
611.0000	43.7949
611.5000	43.1347
612.0000	42.5882
612.5000	42.0397
613.0000	41.4662
613.5000	40.9352
614.0000	40.4947
614.5000	39.9381
615.0000	39.3915
615.5000	39.0896
616.0000	38.4147
616.5000	37.8219
617.0000	37.3829
617.5000	36.533
618.0000	36.0474
618.5000	35.8958
619.0000	35.3312
619.5000	34.6395
620.0000	34.0526
620.5000	33.7883
621.0000	33.2657
621.5000	32.7828
622.0000	32.4226
622.5000	31.8308
623.0000	31.497
623.5000	30.8649
624.0000	30.5138
624.5000	30.228
625.0000	29.7825
625.5000	29.4379
626.0000	28.8787
626.5000	28.4037
627.0000	28.1264
627.5000	27.7168
628.0000	27.2313
628.5000	26.6655
629.0000	26.3611
629.5000	25.99
630.0000	25.6401
630.5000	25.2407
631.0000	24.7501
631.5000	24.4051
632.0000	24.098
632.5000	23.6994
633.0000	23.4244
633.5000	23.2246
634.0000	22.6491
634.5000	22.2754
635.0000	22.0778
635.5000	21.7953
636.0000	21.2957
636.5000	20.9541
637.0000	20.5626
637.5000	20.3429
638.0000	20.0465
638.5000	19.7021
639.0000	19.419
639.5000	19.1029
640.0000	18.9693
640.5000	18.6434
641.0000	18.2859
641.5000	18.1134
642.0000	17.8726
642.5000	17.6306
643.0000	17.2846
643.5000	16.9154
644.0000	16.6998
644.5000	16.4042
645.0000	16.1934
645.5000	16.0608
646.0000	15.7388
646.5000	15.4417
647.0000	15.108
647.5000	14.8647
648.0000	14.8203
648.5000	14.5112
649.0000	14.025
649.5000	13.9631
650.0000	13.8876
650.5000	13.7322
651.0000	13.5268
651.5000	13.2896
652.0000	13.0756
652.5000	12.7841
653.0000	12.552
653.5000	12.3585
654.0000	12.1416
654.5000	11.9975
655.0000	11.7584
655.5000	11.6119
656.0000	11.4547
656.5000	11.2224
657.0000	11.1123
657.5000	10.8243
658.0000	10.6832
658.5000	10.5183
659.0000	10.3983
659.5000	10.1037
660.0000	10.0169
660.5000	9.83184
661.0000	9.75829
661.5000	9.70922
662.0000	9.44504
662.5000	9.10032
663.0000	9.07146
663.5000	8.96975
664.0000	8.75378
664.5000	8.64623
665.0000	8.57251
665.5000	8.41828
666.0000	8.23488
666.5000	8.01952
667.0000	8.0283
667.5000	8.01973
668.0000	7.7537
668.5000	7.56234
669.0000	7.39741
669.5000	7.38665
670.0000	7.30658
670.5000	7.12006
671.0000	7.0528
671.5000	6.99153
672.0000	6.80308
672.5000	6.5993
673.0000	6.56742
673.5000	6.50049
674.0000	6.43516
674.5000	6.30302
675.0000	6.20825
675.5000	6.0246
676.0000	5.96048
676.5000	5.89753
677.0000	5.74432
677.5000	5.62269
678.0000	5.5688
678.5000	5.3785
679.0000	5.34593
679.5000	5.22474
680.0000	5.06221
680.5000	4.98986
681.0000	4.92217
681.5000	4.90797
682.0000	4.80898
682.5000	4.74408
683.0000	4.67654
683.5000	4.57443
684.0000	4.48578
684.5000	4.48951
685.0000	4.41022
685.5000	4.30694
686.0000	4.26082
686.5000	4.17867
687.0000	4.12901
687.5000	4.06591
688.0000	3.98219
688.5000	3.89613
689.0000	3.78862
689.5000	3.74775
690.0000	3.70089
690.5000	3.68755
691.0000	3.56947
691.5000	3.52086
692.0000	3.50274
692.5000	3.38745
693.0000	3.35039
693.5000	3.29436
694.0000	3.15383
694.5000	3.14878
695.0000	3.17094
695.5000	3.12226
696.0000	3.08064
696.5000	2.98294
697.0000	2.87496
697.5000	2.82323
698.0000	2.76972
698.5000	2.74036
699.0000	2.75855
699.5000	2.65545
700.0000	2.61458

##### Extended Information
[コメント情報]
試料名
コメント
測定者
所属
会社	関西大学

[データ情報]
作成日時	2025/04/16 23:28

データタイプ	等間隔データ
横軸	Wavelength [nm]
縦軸	Int.
スタート	422 nm
エンド	700 nm
データ間隔	0.5 nm
データ数	557     

[測定情報]
機種名	FP-8300
シリアル番号	C037361450
  Ex側フォルダ	なし
  Em側フォルダ	なし

付属品名	SCE-846
付属品シリアルNo.	C037361450

測定日時	2025/04/16 23:27

測定モード	蛍光
励起側バンド幅	5 nm
蛍光側バンド幅	5 nm
レスポンス	0.1 sec
感度	Low
測定範囲	422 - 700 nm
データ取込間隔	0.5 nm
励起波長	422.0 nm
走査速度	500 nm/min
オートゲイン	Off
自動シャッタ制御	測定時のみ開く
光源	キセノンランプ
フィルタ	交換時にスキャンを停止する
ブランク補正	Off

