TITLE	
DATA TYPE	FLUORESCENCE SPECTRUM
ORIGIN	JASCO
OWNER	
DATE	25/02/07
TIME	12:08:07
SPECTROMETER/DATA SYSTEM	
LOCALE	1041
RESOLUTION	
DELTAX	0.5
XUNITS	NANOMETERS
YUNITS	INTENSITY
FIRSTX	  422.0000
LASTX	  700.0000
NPOINTS	     557
FIRSTY	    89.75631
MAXY	    89.75631
MINY	     0.00939
XYDATA
422.0000	89.7563
422.5000	81.186
423.0000	70.6791
423.5000	58.8011
424.0000	46.7334
424.5000	35.52
425.0000	25.6503
425.5000	17.8812
426.0000	11.9219
426.5000	7.36107
427.0000	4.55241
427.5000	2.71873
428.0000	1.50014
428.5000	0.93309
429.0000	0.627102
429.5000	0.45638
430.0000	0.421581
430.5000	0.402121
431.0000	0.413986
431.5000	0.411203
432.0000	0.43102
432.5000	0.444241
433.0000	0.441373
433.5000	0.443576
434.0000	0.490962
434.5000	0.486878
435.0000	0.538453
435.5000	0.625153
436.0000	0.66583
436.5000	0.786713
437.0000	0.922204
437.5000	1.01889
438.0000	1.15477
438.5000	1.30118
439.0000	1.48547
439.5000	1.66162
440.0000	1.80542
440.5000	1.98683
441.0000	2.2655
441.5000	2.49415
442.0000	2.78868
442.5000	3.13262
443.0000	3.51191
443.5000	3.94669
444.0000	4.47989
444.5000	5.1231
445.0000	5.65173
445.5000	6.37697
446.0000	7.29963
446.5000	8.18497
447.0000	9.21839
447.5000	10.2575
448.0000	11.3889
448.5000	12.6029
449.0000	14.0481
449.5000	15.5063
450.0000	16.7778
450.5000	18.1707
451.0000	19.5864
451.5000	20.9105
452.0000	22.1854
452.5000	23.6641
453.0000	24.9143
453.5000	26.0329
454.0000	27.1314
454.5000	27.8718
455.0000	28.5307
455.5000	29.0317
456.0000	29.4512
456.5000	29.7386
457.0000	29.8925
457.5000	30.0679
458.0000	30.039
458.5000	29.8625
459.0000	29.579
459.5000	29.4821
460.0000	29.2908
460.5000	28.6147
461.0000	28.2959
461.5000	27.805
462.0000	27.2679
462.5000	26.6059
463.0000	26.1182
463.5000	25.5023
464.0000	24.6804
464.5000	24.1316
465.0000	23.4833
465.5000	22.9814
466.0000	22.287
466.5000	21.5135
467.0000	20.9746
467.5000	20.3204
468.0000	19.9049
468.5000	19.2694
469.0000	18.6483
469.5000	18.2011
470.0000	17.526
470.5000	17.0431
471.0000	16.6686
471.5000	16.3367
472.0000	15.9521
472.5000	15.6925
473.0000	15.289
473.5000	15.146
474.0000	14.9204
474.5000	14.6885
475.0000	14.679
475.5000	14.7109
476.0000	14.6835
476.5000	14.6009
477.0000	14.7256
477.5000	14.8575
478.0000	14.918
478.5000	15.079
479.0000	15.3592
479.5000	15.7216
480.0000	16.0073
480.5000	16.2993
481.0000	16.5806
481.5000	16.7855
482.0000	17.1059
482.5000	17.5512
483.0000	17.8105
483.5000	18.1142
484.0000	18.3521
484.5000	18.5386
485.0000	18.6714
485.5000	18.8699
486.0000	19.1533
486.5000	19.3827
487.0000	19.4565
487.5000	19.426
488.0000	19.4201
488.5000	19.3568
489.0000	19.3022
489.5000	19.1927
490.0000	19.066
490.5000	18.8744
491.0000	18.4085
491.5000	18.0568
492.0000	17.7527
492.5000	17.4727
493.0000	16.9781
493.5000	16.5258
494.0000	15.936
494.5000	15.4654
495.0000	14.9922
495.5000	14.4275
496.0000	13.8221
496.5000	13.3428
497.0000	13.0519
497.5000	12.3402
498.0000	11.8868
498.5000	11.526
499.0000	11.0352
499.5000	10.5946
500.0000	10.137
500.5000	9.65071
501.0000	9.30775
501.5000	8.93304
502.0000	8.58434
502.5000	8.33352
503.0000	7.99642
503.5000	7.72221
504.0000	7.48112
504.5000	7.21602
505.0000	7.04824
505.5000	6.80391
506.0000	6.529
506.5000	6.40831
507.0000	6.29332
507.5000	6.12185
508.0000	6.07634
508.5000	5.94555
509.0000	5.90818
509.5000	5.79816
510.0000	5.68148
510.5000	5.66062
511.0000	5.60462
511.5000	5.53054
512.0000	5.51885
512.5000	5.45964
513.0000	5.37848
513.5000	5.34061
514.0000	5.28829
514.5000	5.41828
515.0000	5.43075
515.5000	5.29803
516.0000	5.24604
516.5000	5.336
517.0000	5.27784
517.5000	5.33367
518.0000	5.30228
518.5000	5.31192
519.0000	5.30184
519.5000	5.30855
520.0000	5.32766
520.5000	5.36429
521.0000	5.27241
521.5000	5.33441
522.0000	5.39332
522.5000	5.36548
523.0000	5.46028
523.5000	5.42161
524.0000	5.37239
524.5000	5.40045
525.0000	5.41114
525.5000	5.4373
526.0000	5.42717
526.5000	5.34653
527.0000	5.38499
527.5000	5.41122
528.0000	5.26758
528.5000	5.31175
529.0000	5.35785
529.5000	5.31904
530.0000	5.37091
530.5000	5.29327
531.0000	5.36554
531.5000	5.29643
532.0000	5.31131
532.5000	5.25547
533.0000	5.27108
533.5000	5.22168
534.0000	5.23449
534.5000	5.16584
535.0000	5.15712
535.5000	5.18706
536.0000	5.08319
536.5000	5.02487
537.0000	4.96602
537.5000	4.95684
538.0000	4.9091
538.5000	4.93931
539.0000	4.89252
539.5000	4.81357
540.0000	4.80609
540.5000	4.7223
541.0000	4.76207
541.5000	4.76838
542.0000	4.71315
542.5000	4.63319
543.0000	4.55228
543.5000	4.56398
544.0000	4.59761
544.5000	4.52207
545.0000	4.51981
545.5000	4.45466
546.0000	4.46518
546.5000	4.45523
547.0000	4.43569
547.5000	4.52682
548.0000	4.44412
548.5000	4.38249
549.0000	4.35246
549.5000	4.38416
550.0000	4.35767
550.5000	4.29532
551.0000	4.22957
551.5000	4.24722
552.0000	4.29927
552.5000	4.308
553.0000	4.2554
553.5000	4.21515
554.0000	4.20438
554.5000	4.24894
555.0000	4.25253
555.5000	4.2411
556.0000	4.18411
556.5000	4.13555
557.0000	4.10383
557.5000	4.12761
558.0000	4.07342
558.5000	4.20615
559.0000	4.126
559.5000	4.0983
560.0000	4.08207
560.5000	4.12573
561.0000	4.0731
561.5000	4.07615
562.0000	4.09657
562.5000	4.07844
563.0000	4.06347
563.5000	4.006
564.0000	3.98476
564.5000	3.94912
565.0000	3.94831
565.5000	3.95292
566.0000	3.94669
566.5000	3.84626
567.0000	3.87761
567.5000	3.89158
568.0000	3.89238
568.5000	3.80785
569.0000	3.76943
569.5000	3.81699
570.0000	3.76002
570.5000	3.71879
571.0000	3.68501
571.5000	3.65001
572.0000	3.69662
572.5000	3.68798
573.0000	3.60508
573.5000	3.60039
574.0000	3.61074
574.5000	3.59435
575.0000	3.51355
575.5000	3.4441
576.0000	3.4417
576.5000	3.4452
577.0000	3.45115
577.5000	3.39581
578.0000	3.40191
578.5000	3.3348
579.0000	3.34737
579.5000	3.28724
580.0000	3.24963
580.5000	3.27375
581.0000	3.26327
581.5000	3.16408
582.0000	3.11573
582.5000	3.09421
583.0000	3.11728
583.5000	3.04622
584.0000	3.06063
584.5000	2.97477
585.0000	2.93513
585.5000	2.91362
586.0000	2.90785
586.5000	2.84849
587.0000	2.81238
587.5000	2.85495
588.0000	2.82941
588.5000	2.7568
589.0000	2.73016
589.5000	2.71385
590.0000	2.69708
590.5000	2.67797
591.0000	2.62778
591.5000	2.61541
592.0000	2.56447
592.5000	2.55404
593.0000	2.53309
593.5000	2.56816
594.0000	2.48444
594.5000	2.54696
595.0000	2.4733
595.5000	2.41692
596.0000	2.43547
596.5000	2.4363
597.0000	2.34501
597.5000	2.32712
598.0000	2.33208
598.5000	2.2748
599.0000	2.21415
599.5000	2.20604
600.0000	2.20499
600.5000	2.17215
601.0000	2.15528
601.5000	2.15735
602.0000	2.11863
602.5000	2.06992
603.0000	2.04932
603.5000	2.08232
604.0000	2.08543
604.5000	2.0422
605.0000	2.01222
605.5000	1.93266
606.0000	1.94168
606.5000	1.9529
607.0000	1.92949
607.5000	1.90137
608.0000	1.87799
608.5000	1.84676
609.0000	1.8301
609.5000	1.77237
610.0000	1.8003
610.5000	1.80275
611.0000	1.77008
611.5000	1.76087
612.0000	1.7279
612.5000	1.703
613.0000	1.69655
613.5000	1.69918
614.0000	1.67873
614.5000	1.70056
615.0000	1.58673
615.5000	1.62346
616.0000	1.58481
616.5000	1.57722
617.0000	1.54374
617.5000	1.50915
618.0000	1.46299
618.5000	1.47043
619.0000	1.42623
619.5000	1.43909
620.0000	1.48144
620.5000	1.39956
621.0000	1.33507
621.5000	1.32423
622.0000	1.3001
622.5000	1.28755
623.0000	1.2577
623.5000	1.2775
624.0000	1.25624
624.5000	1.24778
625.0000	1.29513
625.5000	1.26462
626.0000	1.23069
626.5000	1.19047
627.0000	1.20319
627.5000	1.19279
628.0000	1.16121
628.5000	1.119
629.0000	1.09311
629.5000	1.09276
630.0000	1.07093
630.5000	1.0513
631.0000	1.05685
631.5000	1.05952
632.0000	1.07276
632.5000	1.06322
633.0000	1.03892
633.5000	1.02236
634.0000	1.00768
634.5000	1.00405
635.0000	0.998178
635.5000	0.951087
636.0000	0.939952
636.5000	0.953722
637.0000	0.942945
637.5000	0.927772
638.0000	0.929496
638.5000	0.899466
639.0000	0.847494
639.5000	0.802364
640.0000	0.822394
640.5000	0.736292
641.0000	0.763402
641.5000	0.795881
642.0000	0.771884
642.5000	0.748786
643.0000	0.785229
643.5000	0.741675
644.0000	0.689519
644.5000	0.695939
645.0000	0.68972
645.5000	0.665057
646.0000	0.682433
646.5000	0.670959
647.0000	0.636366
647.5000	0.604403
648.0000	0.644332
648.5000	0.630631
649.0000	0.628299
649.5000	0.65886
650.0000	0.635422
650.5000	0.606961
651.0000	0.574303
651.5000	0.566328
652.0000	0.535876
652.5000	0.535936
653.0000	0.52699
653.5000	0.569942
654.0000	0.536954
654.5000	0.527604
655.0000	0.540853
655.5000	0.533042
656.0000	0.486188
656.5000	0.494452
657.0000	0.508965
657.5000	0.486671
658.0000	0.487863
658.5000	0.466492
659.0000	0.436772
659.5000	0.458238
660.0000	0.440049
660.5000	0.444608
661.0000	0.402334
661.5000	0.387013
662.0000	0.383143
662.5000	0.373141
663.0000	0.380136
663.5000	0.374159
664.0000	0.342918
664.5000	0.35414
665.0000	0.351897
665.5000	0.360509
666.0000	0.358613
666.5000	0.324959
667.0000	0.318507
667.5000	0.305465
668.0000	0.311675
668.5000	0.318141
669.0000	0.30205
669.5000	0.280268
670.0000	0.286648
670.5000	0.282292
671.0000	0.303473
671.5000	0.289791
672.0000	0.28533
672.5000	0.254349
673.0000	0.220284
673.5000	0.263465
674.0000	0.242778
674.5000	0.244002
675.0000	0.22993
675.5000	0.235552
676.0000	0.222722
676.5000	0.206768
677.0000	0.213614
677.5000	0.189617
678.0000	0.162486
678.5000	0.181008
679.0000	0.147182
679.5000	0.15877
680.0000	0.141744
680.5000	0.149864
681.0000	0.164244
681.5000	0.149896
682.0000	0.119425
682.5000	0.132313
683.0000	0.133912
683.5000	0.157256
684.0000	0.141841
684.5000	0.145623
685.0000	0.0871677
685.5000	0.0888995
686.0000	0.155698
686.5000	0.145919
687.0000	0.115078
687.5000	0.108085
688.0000	0.112358
688.5000	0.12531
689.0000	0.126955
689.5000	0.0852793
690.0000	0.0833948
690.5000	0.0628988
691.0000	0.0787202
691.5000	0.0598728
692.0000	0.0766347
692.5000	0.0603302
693.0000	0.071806
693.5000	0.0710407
694.0000	0.0636877
694.5000	0.0361526
695.0000	0.00939262
695.5000	0.0399511
696.0000	0.0403769
696.5000	0.0784986
697.0000	0.0614866
697.5000	0.0362268
698.0000	0.0301233
698.5000	0.0698283
699.0000	0.0634255
699.5000	0.0590757
700.0000	0.033782

##### Extended Information
[コメント情報]
試料名
コメント
測定者
所属
会社	関西大学

[データ情報]
作成日時	2025/02/07 12:08

データタイプ	等間隔データ
横軸	Wavelength [nm]
縦軸	Int.
スタート	422 nm
エンド	700 nm
データ間隔	0.5 nm
データ数	557     

[測定情報]
機種名	FP-8300
シリアル番号	C037361450
  Ex側フォルダ	なし
  Em側フォルダ	なし

付属品名	SCE-846
付属品シリアルNo.	C037361450

測定日時	2025/02/07 12:08

測定モード	蛍光
励起側バンド幅	5 nm
蛍光側バンド幅	5 nm
レスポンス	0.1 sec
感度	Low
測定範囲	422 - 700 nm
データ取込間隔	0.5 nm
励起波長	422.0 nm
走査速度	500 nm/min
オートゲイン	Off
自動シャッタ制御	測定時のみ開く
光源	キセノンランプ
フィルタ	交換時にスキャンを停止する
ブランク補正	Off

