TITLE	
DATA TYPE	FLUORESCENCE SPECTRUM
ORIGIN	JASCO
OWNER	
DATE	25/04/16
TIME	22:24:10
SPECTROMETER/DATA SYSTEM	
LOCALE	1041
RESOLUTION	
DELTAX	0.5
XUNITS	NANOMETERS
YUNITS	INTENSITY
FIRSTX	  422.0000
LASTX	  700.0000
NPOINTS	     557
FIRSTY	   120.51846
MAXY	  1151.82776
MINY	     2.03231
XYDATA
422.0000	120.518
422.5000	106.357
423.0000	90.5411
423.5000	74.2858
424.0000	58.1591
424.5000	43.1791
425.0000	30.8026
425.5000	20.9879
426.0000	14.1667
426.5000	9.46447
427.0000	6.63621
427.5000	5.00987
428.0000	4.06772
428.5000	3.72652
429.0000	3.69795
429.5000	3.74841
430.0000	4.05716
430.5000	4.32656
431.0000	4.64956
431.5000	5.0288
432.0000	5.52939
432.5000	6.04979
433.0000	6.5583
433.5000	7.46709
434.0000	8.44219
434.5000	9.39497
435.0000	10.6244
435.5000	12.3646
436.0000	14.1709
436.5000	16.3728
437.0000	18.9056
437.5000	21.7098
438.0000	25.1646
438.5000	29.1207
439.0000	33.8425
439.5000	39.1297
440.0000	45.3498
440.5000	52.7331
441.0000	60.9539
441.5000	70.4594
442.0000	81.5503
442.5000	93.9011
443.0000	107.823
443.5000	123.278
444.0000	141.61
444.5000	162.804
445.0000	185.957
445.5000	212.354
446.0000	242.054
446.5000	274.827
447.0000	311.472
447.5000	352.245
448.0000	395.715
448.5000	441.548
449.0000	491.626
449.5000	545.999
450.0000	602.432
450.5000	657.583
451.0000	714.433
451.5000	770.328
452.0000	824.2
452.5000	877.404
453.0000	927.836
453.5000	973.728
454.0000	1014.19
454.5000	1048.98
455.0000	1079.1
455.5000	1105.56
456.0000	1124.6
456.5000	1138.56
457.0000	1148.44
457.5000	1151.83
458.0000	1151.77
458.5000	1149.11
459.0000	1141.46
459.5000	1130.38
460.0000	1116.57
460.5000	1099.82
461.0000	1082.82
461.5000	1062.79
462.0000	1041.38
462.5000	1017.85
463.0000	993.815
463.5000	970.063
464.0000	944.646
464.5000	918.016
465.0000	891.724
465.5000	865.174
466.0000	838.077
466.5000	810.947
467.0000	785.023
467.5000	760.191
468.0000	736.275
468.5000	712.569
469.0000	690.276
469.5000	669.356
470.0000	650.014
470.5000	631.033
471.0000	611.846
471.5000	595.957
472.0000	582.561
472.5000	568.275
473.0000	556.575
473.5000	547.311
474.0000	539.405
474.5000	533.78
475.0000	530.106
475.5000	528.46
476.0000	528.784
476.5000	530.556
477.0000	533.284
477.5000	539.853
478.0000	547.508
478.5000	556.753
479.0000	566.938
479.5000	578.295
480.0000	590.888
480.5000	604.344
481.0000	617.422
481.5000	630.135
482.0000	644.214
482.5000	657.845
483.0000	670.703
483.5000	681.536
484.0000	692.34
484.5000	703.347
485.0000	710.827
485.5000	717.98
486.0000	724.83
486.5000	729.914
487.0000	733.175
487.5000	734.494
488.0000	734.365
488.5000	732.553
489.0000	729.339
489.5000	725.331
490.0000	718.405
490.5000	708.377
491.0000	698.864
491.5000	687.028
492.0000	674.214
492.5000	659.575
493.0000	642.568
493.5000	625.862
494.0000	607.85
494.5000	588.948
495.0000	569.394
495.5000	551.078
496.0000	531.528
496.5000	511.667
497.0000	493.909
497.5000	474.728
498.0000	455.559
498.5000	437.465
499.0000	420.75
499.5000	403.894
500.0000	388.91
500.5000	373.552
501.0000	358.42
501.5000	345.05
502.0000	332.168
502.5000	319.867
503.0000	309.315
503.5000	297.771
504.0000	287.939
504.5000	278.837
505.0000	269.519
505.5000	261.419
506.0000	254.577
506.5000	247.657
507.0000	241.805
507.5000	236.496
508.0000	231.887
508.5000	227.09
509.0000	222.86
509.5000	219.425
510.0000	216.815
510.5000	214.126
511.0000	211.631
511.5000	209.693
512.0000	208.297
512.5000	207.139
513.0000	206.29
513.5000	205.642
514.0000	204.915
514.5000	204.734
515.0000	204.093
515.5000	203.791
516.0000	204.053
516.5000	204.949
517.0000	204.699
517.5000	204.595
518.0000	205.144
518.5000	205.319
519.0000	206.149
519.5000	206.489
520.0000	206.86
520.5000	207.072
521.0000	207.206
521.5000	207.275
522.0000	207.897
522.5000	207.984
523.0000	208.386
523.5000	208.561
524.0000	208.198
524.5000	207.578
525.0000	207.457
525.5000	207.581
526.0000	206.951
526.5000	206.364
527.0000	206.059
527.5000	204.853
528.0000	203.726
528.5000	202.629
529.0000	201.129
529.5000	200.204
530.0000	199.204
530.5000	197.658
531.0000	195.965
531.5000	194.217
532.0000	192.539
532.5000	190.865
533.0000	189.201
533.5000	187.975
534.0000	185.575
534.5000	183.345
535.0000	181.373
535.5000	178.948
536.0000	177.4
536.5000	175.593
537.0000	172.785
537.5000	170.648
538.0000	168.351
538.5000	166.054
539.0000	164.146
539.5000	162.063
540.0000	159.923
540.5000	158.077
541.0000	155.952
541.5000	153.58
542.0000	151.243
542.5000	150.029
543.0000	148.246
543.5000	146.225
544.0000	144.235
544.5000	142.32
545.0000	140.546
545.5000	138.7
546.0000	137.078
546.5000	135.953
547.0000	134.347
547.5000	132.747
548.0000	131.471
548.5000	130.281
549.0000	129.084
549.5000	127.624
550.0000	126.696
550.5000	125.279
551.0000	123.616
551.5000	122.795
552.0000	121.545
552.5000	120.609
553.0000	120.056
553.5000	119.526
554.0000	118.341
554.5000	117.372
555.0000	116.371
555.5000	115.558
556.0000	114.892
556.5000	114.015
557.0000	113.419
557.5000	112.873
558.0000	112.018
558.5000	111.532
559.0000	110.578
559.5000	109.685
560.0000	108.706
560.5000	108.363
561.0000	107.403
561.5000	106.923
562.0000	106.327
562.5000	105.457
563.0000	104.766
563.5000	103.765
564.0000	102.825
564.5000	102.379
565.0000	101.504
565.5000	100.737
566.0000	100.022
566.5000	99.0175
567.0000	98.1082
567.5000	97.4983
568.0000	96.8995
568.5000	95.8978
569.0000	94.9856
569.5000	94.2206
570.0000	93.296
570.5000	92.2493
571.0000	91.3907
571.5000	90.6062
572.0000	89.7484
572.5000	88.8576
573.0000	87.7239
573.5000	86.6826
574.0000	85.3603
574.5000	84.5278
575.0000	83.8806
575.5000	82.8337
576.0000	81.6841
576.5000	80.9972
577.0000	80.1605
577.5000	79.1489
578.0000	78.0249
578.5000	77.1861
579.0000	76.1227
579.5000	75.0148
580.0000	74.0755
580.5000	73.1404
581.0000	72.3472
581.5000	71.174
582.0000	70.4448
582.5000	69.2582
583.0000	68.663
583.5000	67.6975
584.0000	66.8242
584.5000	65.5201
585.0000	64.6957
585.5000	63.9081
586.0000	63.2166
586.5000	62.3119
587.0000	61.6314
587.5000	60.9445
588.0000	59.7537
588.5000	59.0938
589.0000	58.0244
589.5000	57.2567
590.0000	56.5602
590.5000	55.9633
591.0000	55.2518
591.5000	54.7006
592.0000	53.6455
592.5000	53.4041
593.0000	52.5223
593.5000	51.674
594.0000	51.1241
594.5000	50.3356
595.0000	49.7308
595.5000	49.2652
596.0000	48.5014
596.5000	47.7754
597.0000	47.0633
597.5000	46.5309
598.0000	46.0865
598.5000	45.4733
599.0000	44.8662
599.5000	44.309
600.0000	43.4911
600.5000	42.7274
601.0000	42.3415
601.5000	41.7331
602.0000	41.4904
602.5000	40.7822
603.0000	40.1776
603.5000	39.667
604.0000	39.1952
604.5000	38.7696
605.0000	38.2871
605.5000	37.8832
606.0000	37.3427
606.5000	36.8526
607.0000	36.4945
607.5000	35.8818
608.0000	35.344
608.5000	34.7815
609.0000	34.4057
609.5000	33.9189
610.0000	33.4681
610.5000	33.1759
611.0000	32.6864
611.5000	32.0998
612.0000	31.8022
612.5000	31.2931
613.0000	30.9849
613.5000	30.6674
614.0000	30.0367
614.5000	29.7433
615.0000	29.4837
615.5000	28.8674
616.0000	28.3263
616.5000	27.9131
617.0000	27.6801
617.5000	27.5151
618.0000	27.0171
618.5000	26.4889
619.0000	26.2648
619.5000	25.9368
620.0000	25.5214
620.5000	25.2714
621.0000	24.877
621.5000	24.4365
622.0000	24.1364
622.5000	23.6517
623.0000	23.3641
623.5000	23.1519
624.0000	22.7507
624.5000	22.4399
625.0000	22.2184
625.5000	21.8976
626.0000	21.568
626.5000	21.1682
627.0000	20.776
627.5000	20.6224
628.0000	20.1815
628.5000	19.9103
629.0000	19.7373
629.5000	19.3908
630.0000	19.1355
630.5000	18.8895
631.0000	18.5011
631.5000	17.9087
632.0000	17.9155
632.5000	17.626
633.0000	17.4698
633.5000	17.1478
634.0000	16.8873
634.5000	16.5642
635.0000	16.2627
635.5000	15.9909
636.0000	15.867
636.5000	15.7437
637.0000	15.5515
637.5000	15.1786
638.0000	15.0405
638.5000	14.8327
639.0000	14.6854
639.5000	14.3007
640.0000	14.0389
640.5000	13.8575
641.0000	13.6986
641.5000	13.5598
642.0000	13.3131
642.5000	13.002
643.0000	12.7457
643.5000	12.656
644.0000	12.4592
644.5000	12.1206
645.0000	12.0044
645.5000	11.8104
646.0000	11.7271
646.5000	11.6679
647.0000	11.3583
647.5000	11.1292
648.0000	10.9362
648.5000	10.7996
649.0000	10.5715
649.5000	10.4652
650.0000	10.4401
650.5000	10.217
651.0000	10.0894
651.5000	9.84773
652.0000	9.73886
652.5000	9.55517
653.0000	9.3757
653.5000	9.31053
654.0000	9.04801
654.5000	8.95566
655.0000	8.77432
655.5000	8.66769
656.0000	8.6346
656.5000	8.42432
657.0000	8.32398
657.5000	8.13996
658.0000	8.0613
658.5000	7.97391
659.0000	7.81596
659.5000	7.66862
660.0000	7.61183
660.5000	7.39063
661.0000	7.28997
661.5000	7.20853
662.0000	7.02422
662.5000	6.94099
663.0000	6.8811
663.5000	6.81572
664.0000	6.65399
664.5000	6.54642
665.0000	6.53014
665.5000	6.32689
666.0000	6.18707
666.5000	6.1122
667.0000	6.07569
667.5000	6.00854
668.0000	5.77036
668.5000	5.65648
669.0000	5.59794
669.5000	5.60979
670.0000	5.49396
670.5000	5.38543
671.0000	5.23552
671.5000	5.14139
672.0000	5.11836
672.5000	5.03951
673.0000	5.00041
673.5000	4.87252
674.0000	4.85174
674.5000	4.73922
675.0000	4.67883
675.5000	4.62525
676.0000	4.51507
676.5000	4.46653
677.0000	4.33948
677.5000	4.31994
678.0000	4.26427
678.5000	4.1828
679.0000	4.17878
679.5000	4.08739
680.0000	3.96772
680.5000	3.92925
681.0000	3.90535
681.5000	3.82449
682.0000	3.79514
682.5000	3.72904
683.0000	3.62366
683.5000	3.58838
684.0000	3.50494
684.5000	3.41701
685.0000	3.36862
685.5000	3.34507
686.0000	3.32833
686.5000	3.2021
687.0000	3.21154
687.5000	3.18115
688.0000	3.06156
688.5000	2.9852
689.0000	2.97752
689.5000	2.90458
690.0000	2.87248
690.5000	2.84608
691.0000	2.78248
691.5000	2.76841
692.0000	2.73585
692.5000	2.68875
693.0000	2.58638
693.5000	2.54008
694.0000	2.50234
694.5000	2.51613
695.0000	2.47479
695.5000	2.45295
696.0000	2.42819
696.5000	2.37314
697.0000	2.41203
697.5000	2.28001
698.0000	2.23045
698.5000	2.17188
699.0000	2.1471
699.5000	2.13185
700.0000	2.03231

##### Extended Information
[コメント情報]
試料名
コメント
測定者
所属
会社	関西大学

[データ情報]
作成日時	2025/04/16 22:24

データタイプ	等間隔データ
横軸	Wavelength [nm]
縦軸	Int.
スタート	422 nm
エンド	700 nm
データ間隔	0.5 nm
データ数	557     

[測定情報]
機種名	FP-8300
シリアル番号	C037361450
  Ex側フォルダ	なし
  Em側フォルダ	なし

付属品名	SCE-846
付属品シリアルNo.	C037361450

測定日時	2025/04/16 22:24

測定モード	蛍光
励起側バンド幅	5 nm
蛍光側バンド幅	5 nm
レスポンス	0.1 sec
感度	Low
測定範囲	422 - 700 nm
データ取込間隔	0.5 nm
励起波長	422.0 nm
走査速度	500 nm/min
オートゲイン	Off
自動シャッタ制御	測定時のみ開く
光源	キセノンランプ
フィルタ	交換時にスキャンを停止する
ブランク補正	Off

