TITLE	
DATA TYPE	FLUORESCENCE SPECTRUM
ORIGIN	JASCO
OWNER	
DATE	25/04/14
TIME	15:53:44
SPECTROMETER/DATA SYSTEM	
LOCALE	1041
RESOLUTION	
DELTAX	0.5
XUNITS	NANOMETERS
YUNITS	INTENSITY
FIRSTX	  422.0000
LASTX	  700.0000
NPOINTS	     557
FIRSTY	   151.60556
MAXY	  2171.84863
MINY	     3.13531
XYDATA
422.0000	151.606
422.5000	136.818
423.0000	119.391
423.5000	100.221
424.0000	79.8926
424.5000	61.0271
425.0000	44.6365
425.5000	31.7937
426.0000	22.2591
426.5000	15.1669
427.0000	10.8386
427.5000	8.1698
428.0000	6.65358
428.5000	6.08225
429.0000	5.96305
429.5000	6.25918
430.0000	6.66856
430.5000	7.09791
431.0000	7.55409
431.5000	8.22905
432.0000	9.12432
432.5000	9.99167
433.0000	11.14
433.5000	12.5075
434.0000	14.2562
434.5000	16.1314
435.0000	18.2645
435.5000	20.8122
436.0000	24.0297
436.5000	27.8251
437.0000	32.0786
437.5000	37.2993
438.0000	43.2786
438.5000	50.383
439.0000	58.2922
439.5000	67.7444
440.0000	78.9558
440.5000	91.3753
441.0000	106.435
441.5000	123.304
442.0000	142.397
442.5000	164.062
443.0000	188.571
443.5000	216.752
444.0000	249.855
444.5000	287.061
445.0000	328.152
445.5000	375.11
446.0000	427.587
446.5000	486.769
447.0000	552.841
447.5000	625.056
448.0000	702.674
448.5000	786.419
449.0000	877.635
449.5000	972.415
450.0000	1071.86
450.5000	1173.08
451.0000	1276.33
451.5000	1378.84
452.0000	1481.39
452.5000	1580.24
453.0000	1673.81
453.5000	1759.92
454.0000	1840.59
454.5000	1912.93
455.0000	1977.53
455.5000	2032.99
456.0000	2077.55
456.5000	2111.63
457.0000	2140.11
457.5000	2159.43
458.0000	2169.26
458.5000	2171.85
459.0000	2169.11
459.5000	2159.4
460.0000	2141.65
460.5000	2119.59
461.0000	2092.7
461.5000	2064.47
462.0000	2031.51
462.5000	1994.38
463.0000	1954.48
463.5000	1915.41
464.0000	1872.18
464.5000	1827.37
465.0000	1782.38
465.5000	1736.55
466.0000	1690.03
466.5000	1642.37
467.0000	1596.51
467.5000	1551.4
468.0000	1507.42
468.5000	1462.6
469.0000	1422.08
469.5000	1382.65
470.0000	1344.22
470.5000	1307.94
471.0000	1273.49
471.5000	1241.53
472.0000	1214.65
472.5000	1188.14
473.0000	1164.29
473.5000	1144.23
474.0000	1127.56
474.5000	1114.94
475.0000	1103.93
475.5000	1100.27
476.0000	1097.99
476.5000	1098.75
477.0000	1103.75
477.5000	1113.09
478.0000	1125.65
478.5000	1140.58
479.0000	1159.82
479.5000	1181.75
480.0000	1204.19
480.5000	1227.31
481.0000	1253.2
481.5000	1280.54
482.0000	1308.34
482.5000	1334.61
483.0000	1361.1
483.5000	1385.24
484.0000	1408.78
484.5000	1431.65
485.0000	1451.59
485.5000	1468.49
486.0000	1485.1
486.5000	1498.98
487.0000	1509.4
487.5000	1517.82
488.0000	1521.06
488.5000	1523.32
489.0000	1522.9
489.5000	1517.93
490.0000	1507.17
490.5000	1494.95
491.0000	1478.82
491.5000	1461.4
492.0000	1438.89
492.5000	1411.2
493.0000	1382.04
493.5000	1350.22
494.0000	1316.08
494.5000	1280.45
495.0000	1244.02
495.5000	1206.45
496.0000	1168.71
496.5000	1130.25
497.0000	1092.1
497.5000	1055.02
498.0000	1018.08
498.5000	982.537
499.0000	948.602
499.5000	914.707
500.0000	882.385
500.5000	850.506
501.0000	819.276
501.5000	790.883
502.0000	765.221
502.5000	739.703
503.0000	714.339
503.5000	690.815
504.0000	668.94
504.5000	648.614
505.0000	631.286
505.5000	615.03
506.0000	598.327
506.5000	583.852
507.0000	571.407
507.5000	559.339
508.0000	547.799
508.5000	537.75
509.0000	528.571
509.5000	520.531
510.0000	514.638
510.5000	508.485
511.0000	502.773
511.5000	497.958
512.0000	494.792
512.5000	491.02
513.0000	487.599
513.5000	485.92
514.0000	485.061
514.5000	483.193
515.0000	482.317
515.5000	482.103
516.0000	481.1
516.5000	480.925
517.0000	481.334
517.5000	482.577
518.0000	483.787
518.5000	484.098
519.0000	484.165
519.5000	485.709
520.0000	487.189
520.5000	488.821
521.0000	489.961
521.5000	489.341
522.0000	489.355
522.5000	489.764
523.0000	490.181
523.5000	490.708
524.0000	492.34
524.5000	492.49
525.0000	491.479
525.5000	490.351
526.0000	489.473
526.5000	488.944
527.0000	488.456
527.5000	487
528.0000	485.639
528.5000	483.342
529.0000	481.366
529.5000	478.624
530.0000	475.903
530.5000	473.058
531.0000	468.801
531.5000	465.803
532.0000	461.617
532.5000	456.655
533.0000	452.553
533.5000	447.646
534.0000	443.568
534.5000	438.873
535.0000	432.937
535.5000	427.655
536.0000	422.951
536.5000	417.104
537.0000	411.006
537.5000	405.266
538.0000	399.957
538.5000	394.576
539.0000	388.949
539.5000	382.103
540.0000	376.186
540.5000	371.293
541.0000	365.233
541.5000	359.329
542.0000	353.238
542.5000	348.212
543.0000	343.494
543.5000	338.655
544.0000	333.378
544.5000	327.79
545.0000	323.23
545.5000	317.814
546.0000	313.179
546.5000	308.882
547.0000	303.052
547.5000	298.859
548.0000	295.008
548.5000	291.288
549.0000	287.11
549.5000	283.329
550.0000	279.542
550.5000	275.86
551.0000	272.352
551.5000	268.87
552.0000	265.93
552.5000	263.035
553.0000	259.668
553.5000	256.054
554.0000	253.035
554.5000	250.088
555.0000	247.425
555.5000	244.256
556.0000	241.732
556.5000	239.534
557.0000	236.808
557.5000	234.191
558.0000	232.147
558.5000	229.611
559.0000	227.279
559.5000	224.748
560.0000	221.96
560.5000	219.964
561.0000	217.332
561.5000	215.938
562.0000	214.41
562.5000	212.3
563.0000	209.386
563.5000	206.88
564.0000	204.515
564.5000	203.171
565.0000	200.585
565.5000	197.954
566.0000	195.447
566.5000	193.487
567.0000	191.536
567.5000	189.071
568.0000	187.183
568.5000	185.131
569.0000	182.773
569.5000	180.957
570.0000	178.591
570.5000	175.9
571.0000	173.676
571.5000	171.667
572.0000	169.408
572.5000	166.831
573.0000	164.679
573.5000	162.868
574.0000	160.737
574.5000	158.695
575.0000	156.882
575.5000	153.978
576.0000	151.505
576.5000	149.368
577.0000	147.371
577.5000	145.489
578.0000	143.043
578.5000	140.926
579.0000	138.733
579.5000	137.083
580.0000	135.208
580.5000	133.396
581.0000	131.222
581.5000	129.113
582.0000	126.901
582.5000	124.798
583.0000	122.611
583.5000	120.837
584.0000	119.367
584.5000	117.245
585.0000	115.181
585.5000	113.559
586.0000	111.823
586.5000	110.163
587.0000	108.65
587.5000	106.771
588.0000	104.933
588.5000	103.489
589.0000	101.669
589.5000	99.8744
590.0000	98.3677
590.5000	97.0405
591.0000	95.2658
591.5000	93.8623
592.0000	92.093
592.5000	90.8828
593.0000	89.3352
593.5000	87.7793
594.0000	86.7366
594.5000	85.847
595.0000	84.0572
595.5000	83.1106
596.0000	81.9396
596.5000	80.5068
597.0000	79.1142
597.5000	77.9952
598.0000	76.9864
598.5000	75.6072
599.0000	74.4351
599.5000	73.5792
600.0000	72.4867
600.5000	71.5808
601.0000	70.4534
601.5000	69.2537
602.0000	68.1213
602.5000	67.1984
603.0000	66.2872
603.5000	65.4694
604.0000	64.4729
604.5000	63.5711
605.0000	62.5385
605.5000	61.8085
606.0000	60.7848
606.5000	59.9234
607.0000	59.1772
607.5000	58.2069
608.0000	57.5129
608.5000	56.7519
609.0000	55.7033
609.5000	54.91
610.0000	53.9764
610.5000	53.5168
611.0000	52.5409
611.5000	51.7107
612.0000	50.8821
612.5000	50.1671
613.0000	49.5182
613.5000	48.6356
614.0000	47.8019
614.5000	47.1453
615.0000	46.4996
615.5000	45.9955
616.0000	45.2237
616.5000	44.6669
617.0000	44.0148
617.5000	43.3274
618.0000	42.6455
618.5000	41.9382
619.0000	41.4404
619.5000	40.8229
620.0000	40.2854
620.5000	39.7641
621.0000	39.1401
621.5000	38.3652
622.0000	37.9608
622.5000	37.2536
623.0000	36.6975
623.5000	36.3271
624.0000	35.6555
624.5000	35.1146
625.0000	34.563
625.5000	33.8227
626.0000	33.1851
626.5000	32.7227
627.0000	32.3614
627.5000	31.7428
628.0000	31.2473
628.5000	30.9522
629.0000	30.3426
629.5000	29.9177
630.0000	29.4713
630.5000	29.0568
631.0000	28.6372
631.5000	28.1871
632.0000	27.6705
632.5000	27.205
633.0000	26.881
633.5000	26.2216
634.0000	25.7962
634.5000	25.4535
635.0000	24.9141
635.5000	24.6718
636.0000	24.3467
636.5000	23.961
637.0000	23.5644
637.5000	23.1332
638.0000	22.7126
638.5000	22.3387
639.0000	22.1409
639.5000	21.703
640.0000	21.3191
640.5000	20.9983
641.0000	20.7007
641.5000	20.3159
642.0000	20.0048
642.5000	19.5737
643.0000	19.3433
643.5000	19.0164
644.0000	18.6967
644.5000	18.3092
645.0000	17.9937
645.5000	17.8867
646.0000	17.4843
646.5000	17.21
647.0000	16.9366
647.5000	16.6748
648.0000	16.4858
648.5000	16.3061
649.0000	16.0101
649.5000	15.5434
650.0000	15.3627
650.5000	15.1614
651.0000	14.9458
651.5000	14.6893
652.0000	14.4378
652.5000	14.3147
653.0000	14.0209
653.5000	13.8973
654.0000	13.666
654.5000	13.2933
655.0000	13.0193
655.5000	12.9892
656.0000	12.7455
656.5000	12.5958
657.0000	12.1471
657.5000	12.0097
658.0000	11.7921
658.5000	11.6898
659.0000	11.5543
659.5000	11.3031
660.0000	11.1745
660.5000	10.9773
661.0000	10.7558
661.5000	10.6214
662.0000	10.502
662.5000	10.28
663.0000	10.0577
663.5000	10.0193
664.0000	9.66841
664.5000	9.54458
665.0000	9.46988
665.5000	9.39643
666.0000	9.27186
666.5000	9.02318
667.0000	8.94506
667.5000	8.75347
668.0000	8.6249
668.5000	8.53415
669.0000	8.26514
669.5000	8.17271
670.0000	7.97215
670.5000	7.92639
671.0000	7.92802
671.5000	7.74872
672.0000	7.60139
672.5000	7.3983
673.0000	7.25619
673.5000	7.16747
674.0000	7.16581
674.5000	7.08694
675.0000	6.92212
675.5000	6.8079
676.0000	6.73919
676.5000	6.60228
677.0000	6.43181
677.5000	6.32524
678.0000	6.23499
678.5000	6.16127
679.0000	5.99842
679.5000	5.94964
680.0000	5.88571
680.5000	5.78458
681.0000	5.68707
681.5000	5.57009
682.0000	5.52041
682.5000	5.39655
683.0000	5.26998
683.5000	5.21779
684.0000	5.16083
684.5000	5.16018
685.0000	5.02639
685.5000	4.91301
686.0000	4.76644
686.5000	4.71951
687.0000	4.69812
687.5000	4.55834
688.0000	4.5089
688.5000	4.39863
689.0000	4.31729
689.5000	4.32822
690.0000	4.19112
690.5000	4.13289
691.0000	4.10644
691.5000	4.06259
692.0000	4.02865
692.5000	3.95408
693.0000	3.88586
693.5000	3.8315
694.0000	3.68254
694.5000	3.70049
695.0000	3.61805
695.5000	3.57179
696.0000	3.60136
696.5000	3.51292
697.0000	3.43973
697.5000	3.36137
698.0000	3.32391
698.5000	3.31062
699.0000	3.22195
699.5000	3.18775
700.0000	3.13531

##### Extended Information
[コメント情報]
試料名
コメント
測定者
所属
会社	関西大学

[データ情報]
作成日時	2025/04/14 15:53

データタイプ	等間隔データ
横軸	Wavelength [nm]
縦軸	Int.
スタート	422 nm
エンド	700 nm
データ間隔	0.5 nm
データ数	557     

[測定情報]
機種名	FP-8300
シリアル番号	C037361450
  Ex側フォルダ	なし
  Em側フォルダ	なし

付属品名	SCE-846
付属品シリアルNo.	C037361450

測定日時	2025/04/14 15:53

測定モード	蛍光
励起側バンド幅	5 nm
蛍光側バンド幅	5 nm
レスポンス	0.1 sec
感度	Low
測定範囲	422 - 700 nm
データ取込間隔	0.5 nm
励起波長	422.0 nm
走査速度	500 nm/min
オートゲイン	Off
自動シャッタ制御	測定時のみ開く
光源	キセノンランプ
フィルタ	交換時にスキャンを停止する
ブランク補正	Off

