TITLE	
DATA TYPE	FLUORESCENCE SPECTRUM
ORIGIN	JASCO
OWNER	
DATE	25/05/13
TIME	20:30:41
SPECTROMETER/DATA SYSTEM	
LOCALE	1041
RESOLUTION	
DELTAX	0.5
XUNITS	NANOMETERS
YUNITS	INTENSITY
FIRSTX	  422.0000
LASTX	  700.0000
NPOINTS	     557
FIRSTY	    81.10500
MAXY	  1511.18542
MINY	     1.75608
XYDATA
422.0000	81.105
422.5000	70.9302
423.0000	59.6445
423.5000	48.1382
424.0000	37.162
424.5000	27.3595
425.0000	19.7737
425.5000	13.6558
426.0000	9.34855
426.5000	6.55278
427.0000	4.93057
427.5000	4.12135
428.0000	3.72832
428.5000	3.72941
429.0000	3.86664
429.5000	4.11822
430.0000	4.58041
430.5000	4.95851
431.0000	5.36416
431.5000	6.03646
432.0000	6.82188
432.5000	7.57236
433.0000	8.47494
433.5000	9.56636
434.0000	10.9485
434.5000	12.6424
435.0000	14.5012
435.5000	16.6961
436.0000	19.3832
436.5000	22.5329
437.0000	25.8929
437.5000	30.1976
438.0000	35.2473
438.5000	40.7377
439.0000	47.2154
439.5000	55.1994
440.0000	64.0133
440.5000	73.9177
441.0000	85.3233
441.5000	98.7454
442.0000	114.154
442.5000	131.046
443.0000	150.704
443.5000	172.297
444.0000	197.688
444.5000	225.98
445.0000	258.062
445.5000	293.42
446.0000	333.369
446.5000	377.9
447.0000	427.106
447.5000	480.231
448.0000	536.478
448.5000	596.906
449.0000	660.988
449.5000	728.712
450.0000	799.398
450.5000	868.749
451.0000	938.574
451.5000	1008.23
452.0000	1075.49
452.5000	1142.46
453.0000	1203.96
453.5000	1260.04
454.0000	1310.79
454.5000	1356.86
455.0000	1397.43
455.5000	1431.75
456.0000	1461.99
456.5000	1483.57
457.0000	1498.46
457.5000	1507.12
458.0000	1511.19
458.5000	1510.79
459.0000	1505.25
459.5000	1496.38
460.0000	1483.04
460.5000	1464.7
461.0000	1445.41
461.5000	1423.5
462.0000	1397.88
462.5000	1370.05
463.0000	1340.2
463.5000	1309.4
464.0000	1278.68
464.5000	1246.1
465.0000	1213.27
465.5000	1180.57
466.0000	1144.3
466.5000	1111.14
467.0000	1078.42
467.5000	1046.89
468.0000	1014.43
468.5000	983.296
469.0000	953.546
469.5000	925.751
470.0000	899.265
470.5000	875.144
471.0000	851.678
471.5000	829.816
472.0000	810.059
472.5000	793.036
473.0000	778.357
473.5000	767.028
474.0000	757.273
474.5000	749.625
475.0000	745.167
475.5000	743.703
476.0000	743.762
476.5000	745.633
477.0000	750.889
477.5000	758.606
478.0000	767.937
478.5000	779.678
479.0000	793.288
479.5000	808.772
480.0000	826.071
480.5000	843.113
481.0000	860.981
481.5000	879.551
482.0000	896.138
482.5000	913.393
483.0000	930.412
483.5000	945.836
484.0000	960.314
484.5000	973.902
485.0000	985.74
485.5000	997.109
486.0000	1006.86
486.5000	1013.44
487.0000	1018.46
487.5000	1021.04
488.0000	1021.86
488.5000	1020.89
489.0000	1018.19
489.5000	1012.89
490.0000	1005
490.5000	994.442
491.0000	980.115
491.5000	964.648
492.0000	947.807
492.5000	929.605
493.0000	908.841
493.5000	886.598
494.0000	862.932
494.5000	837.412
495.0000	811.856
495.5000	785.831
496.0000	759.466
496.5000	733.163
497.0000	706.601
497.5000	682.431
498.0000	656.47
498.5000	632.171
499.0000	608.25
499.5000	585.797
500.0000	563.772
500.5000	542.154
501.0000	522.711
501.5000	503.876
502.0000	486.483
502.5000	468.712
503.0000	452.248
503.5000	437.23
504.0000	422.952
504.5000	410.346
505.0000	398.05
505.5000	387.03
506.0000	376.329
506.5000	367.063
507.0000	358.769
507.5000	350.624
508.0000	344.084
508.5000	337.718
509.0000	331.343
509.5000	327.675
510.0000	324.072
510.5000	320.099
511.0000	317.081
511.5000	314.081
512.0000	311.985
512.5000	310.152
513.0000	309.191
513.5000	307.523
514.0000	306.694
514.5000	306.497
515.0000	306.336
515.5000	306.389
516.0000	306.345
516.5000	306.684
517.0000	307.191
517.5000	307.567
518.0000	308.376
518.5000	309.107
519.0000	309.489
519.5000	310.583
520.0000	311.082
520.5000	311.594
521.0000	312.546
521.5000	313.578
522.0000	313.802
522.5000	314.11
523.0000	314.49
523.5000	315.107
524.0000	315.565
524.5000	315.366
525.0000	315.923
525.5000	314.807
526.0000	314.649
526.5000	314.481
527.0000	313.183
527.5000	312.004
528.0000	311.192
528.5000	309.635
529.0000	308.189
529.5000	307.132
530.0000	304.924
530.5000	303.005
531.0000	301.285
531.5000	298.4
532.0000	295.6
532.5000	293.152
533.0000	291.15
533.5000	287.978
534.0000	284.635
534.5000	281.748
535.0000	278.272
535.5000	275.164
536.0000	272.155
536.5000	268.577
537.0000	265.145
537.5000	261.42
538.0000	257.969
538.5000	254.358
539.0000	250.404
539.5000	246.7
540.0000	243.905
540.5000	239.173
541.0000	235.683
541.5000	231.719
542.0000	228.992
542.5000	225.873
543.0000	222.872
543.5000	219.225
544.0000	216.035
544.5000	212.908
545.0000	210.01
545.5000	206.842
546.0000	204.316
546.5000	201.766
547.0000	198.959
547.5000	196.258
548.0000	193.435
548.5000	191.581
549.0000	188.908
549.5000	186.316
550.0000	184.402
550.5000	182.282
551.0000	179.782
551.5000	177.792
552.0000	175.906
552.5000	174.342
553.0000	172.938
553.5000	170.869
554.0000	168.913
554.5000	166.981
555.0000	165.38
555.5000	163.523
556.0000	162.191
556.5000	160.853
557.0000	159.362
557.5000	157.806
558.0000	156.66
558.5000	155.432
559.0000	153.893
559.5000	152.562
560.0000	151.489
560.5000	150.109
561.0000	148.246
561.5000	146.746
562.0000	145.957
562.5000	144.576
563.0000	142.921
563.5000	141.217
564.0000	139.791
564.5000	138.465
565.0000	137.409
565.5000	136.703
566.0000	135.263
566.5000	133.753
567.0000	132.446
567.5000	131.252
568.0000	129.637
568.5000	127.657
569.0000	126.619
569.5000	125.075
570.0000	123.75
570.5000	122.568
571.0000	120.962
571.5000	119.275
572.0000	117.751
572.5000	116.661
573.0000	114.97
573.5000	113.408
574.0000	112.408
574.5000	111.143
575.0000	109.138
575.5000	107.551
576.0000	106.351
576.5000	105.078
577.0000	103.518
577.5000	101.8
578.0000	100.464
578.5000	99.0375
579.0000	97.6015
579.5000	96.3648
580.0000	95.1164
580.5000	93.8082
581.0000	92.3208
581.5000	90.8522
582.0000	89.6403
582.5000	88.5722
583.0000	87.0498
583.5000	85.5215
584.0000	84.4321
584.5000	82.7999
585.0000	81.6487
585.5000	80.9478
586.0000	79.538
586.5000	78.135
587.0000	77.2334
587.5000	76.3181
588.0000	74.7982
588.5000	73.674
589.0000	72.8541
589.5000	71.7838
590.0000	70.4579
590.5000	69.5087
591.0000	68.1699
591.5000	67.4077
592.0000	66.705
592.5000	65.5356
593.0000	64.3358
593.5000	63.2732
594.0000	62.6047
594.5000	61.3514
595.0000	60.7146
595.5000	59.9038
596.0000	59.0295
596.5000	58.1222
597.0000	57.4905
597.5000	56.5566
598.0000	55.7697
598.5000	55.263
599.0000	54.4896
599.5000	53.4934
600.0000	52.437
600.5000	51.7915
601.0000	51.2965
601.5000	50.627
602.0000	49.9008
602.5000	48.7919
603.0000	48.2217
603.5000	47.5261
604.0000	46.8191
604.5000	46.1941
605.0000	45.6762
605.5000	45.0416
606.0000	44.4361
606.5000	43.6962
607.0000	43.1707
607.5000	42.3753
608.0000	41.8625
608.5000	41.6598
609.0000	40.9991
609.5000	40.2858
610.0000	39.715
610.5000	39.1274
611.0000	38.7985
611.5000	38.2237
612.0000	37.2403
612.5000	36.9603
613.0000	36.7505
613.5000	36.1168
614.0000	35.4962
614.5000	34.9966
615.0000	34.4674
615.5000	33.9784
616.0000	33.3856
616.5000	33.0635
617.0000	32.498
617.5000	32.0647
618.0000	31.5413
618.5000	31.0405
619.0000	30.5097
619.5000	30.3044
620.0000	29.8665
620.5000	29.2145
621.0000	28.9845
621.5000	28.5528
622.0000	28.0251
622.5000	27.489
623.0000	27.0132
623.5000	26.665
624.0000	26.4221
624.5000	25.865
625.0000	25.4751
625.5000	25.0519
626.0000	24.7298
626.5000	24.3545
627.0000	23.8954
627.5000	23.5906
628.0000	23.1383
628.5000	22.8449
629.0000	22.492
629.5000	22.0513
630.0000	21.7335
630.5000	21.4642
631.0000	21.2455
631.5000	20.7516
632.0000	20.2746
632.5000	20.2289
633.0000	19.9077
633.5000	19.3953
634.0000	19.0594
634.5000	18.8299
635.0000	18.444
635.5000	18.1757
636.0000	17.8294
636.5000	17.5113
637.0000	17.2908
637.5000	17.1555
638.0000	16.8949
638.5000	16.4991
639.0000	16.2569
639.5000	15.9428
640.0000	15.7039
640.5000	15.4581
641.0000	15.1867
641.5000	14.8507
642.0000	14.6058
642.5000	14.4974
643.0000	14.3755
643.5000	13.9626
644.0000	13.8314
644.5000	13.4661
645.0000	13.3238
645.5000	13.1341
646.0000	12.8662
646.5000	12.7986
647.0000	12.6109
647.5000	12.2298
648.0000	11.9296
648.5000	11.7543
649.0000	11.5655
649.5000	11.3798
650.0000	11.2975
650.5000	11.1151
651.0000	10.8538
651.5000	10.7056
652.0000	10.5858
652.5000	10.369
653.0000	10.2162
653.5000	9.95572
654.0000	9.75303
654.5000	9.66371
655.0000	9.49592
655.5000	9.33079
656.0000	9.20925
656.5000	9.0638
657.0000	8.97415
657.5000	8.74904
658.0000	8.60419
658.5000	8.40547
659.0000	8.29967
659.5000	8.15373
660.0000	7.97407
660.5000	7.8831
661.0000	7.78874
661.5000	7.64355
662.0000	7.47603
662.5000	7.33538
663.0000	7.16921
663.5000	7.02264
664.0000	6.86297
664.5000	6.7864
665.0000	6.73346
665.5000	6.56882
666.0000	6.49365
666.5000	6.36241
667.0000	6.2375
667.5000	6.16085
668.0000	6.05454
668.5000	6.00899
669.0000	5.79396
669.5000	5.67462
670.0000	5.62607
670.5000	5.46948
671.0000	5.44708
671.5000	5.34394
672.0000	5.24013
672.5000	5.13344
673.0000	5.062
673.5000	4.90911
674.0000	4.81537
674.5000	4.79311
675.0000	4.73068
675.5000	4.64099
676.0000	4.61946
676.5000	4.41686
677.0000	4.33389
677.5000	4.28198
678.0000	4.23018
678.5000	4.09616
679.0000	4.06571
679.5000	3.98105
680.0000	3.91808
680.5000	3.86014
681.0000	3.78675
681.5000	3.72209
682.0000	3.66157
682.5000	3.59601
683.0000	3.49977
683.5000	3.3806
684.0000	3.36764
684.5000	3.2436
685.0000	3.23957
685.5000	3.158
686.0000	3.03676
686.5000	2.98636
687.0000	3.02598
687.5000	3.0098
688.0000	2.88139
688.5000	2.81634
689.0000	2.82859
689.5000	2.7714
690.0000	2.64452
690.5000	2.65129
691.0000	2.53272
691.5000	2.47352
692.0000	2.44707
692.5000	2.42375
693.0000	2.33028
693.5000	2.25474
694.0000	2.21852
694.5000	2.1744
695.0000	2.12895
695.5000	2.07987
696.0000	2.05187
696.5000	2.00605
697.0000	1.99464
697.5000	1.95131
698.0000	1.98271
698.5000	1.87992
699.0000	1.85687
699.5000	1.75608
700.0000	1.77923

##### Extended Information
[コメント情報]
試料名
コメント
測定者
所属
会社	関西大学

[データ情報]
作成日時	2025/05/13 20:30

データタイプ	等間隔データ
横軸	Wavelength [nm]
縦軸	Int.
スタート	422 nm
エンド	700 nm
データ間隔	0.5 nm
データ数	557     

[測定情報]
機種名	FP-8300
シリアル番号	C037361450
  Ex側フォルダ	なし
  Em側フォルダ	なし

付属品名	SCE-846
付属品シリアルNo.	C037361450

測定日時	2025/05/13 20:30

測定モード	蛍光
励起側バンド幅	5 nm
蛍光側バンド幅	5 nm
レスポンス	0.1 sec
感度	Low
測定範囲	422 - 700 nm
データ取込間隔	0.5 nm
励起波長	422.0 nm
走査速度	500 nm/min
オートゲイン	Off
自動シャッタ制御	測定時のみ開く
光源	キセノンランプ
フィルタ	交換時にスキャンを停止する
ブランク補正	Off

