TITLE	
DATA TYPE	FLUORESCENCE SPECTRUM
ORIGIN	JASCO
OWNER	
DATE	25/02/07
TIME	12:29:03
SPECTROMETER/DATA SYSTEM	
LOCALE	1041
RESOLUTION	
DELTAX	0.5
XUNITS	NANOMETERS
YUNITS	INTENSITY
FIRSTX	  422.0000
LASTX	  700.0000
NPOINTS	     557
FIRSTY	   117.13062
MAXY	  1483.01221
MINY	     1.56093
XYDATA
422.0000	117.131
422.5000	103.744
423.0000	87.7985
423.5000	70.9912
424.0000	55.0839
424.5000	41.0009
425.0000	29.213
425.5000	20.1652
426.0000	13.7957
426.5000	9.36563
427.0000	6.71943
427.5000	5.16112
428.0000	4.16876
428.5000	3.8073
429.0000	3.72377
429.5000	3.95782
430.0000	4.28276
430.5000	4.64778
431.0000	4.98178
431.5000	5.45526
432.0000	6.12361
432.5000	6.86691
433.0000	7.7293
433.5000	8.61672
434.0000	9.74092
434.5000	11.2971
435.0000	12.8836
435.5000	14.7659
436.0000	17.1044
436.5000	19.8945
437.0000	23.1961
437.5000	26.8286
438.0000	30.9997
438.5000	36.2689
439.0000	42.1781
439.5000	49.0879
440.0000	56.7519
440.5000	65.9917
441.0000	76.5495
441.5000	88.4521
442.0000	101.906
442.5000	117.337
443.0000	135.382
443.5000	155.137
444.0000	178.237
444.5000	204.087
445.0000	233.368
445.5000	266.635
446.0000	303.396
446.5000	344.472
447.0000	390.39
447.5000	441.277
448.0000	495.614
448.5000	553.285
449.0000	615.258
449.5000	680.619
450.0000	747.948
450.5000	817.611
451.0000	888.147
451.5000	956.742
452.0000	1026.73
452.5000	1093.97
453.0000	1156.66
453.5000	1215.78
454.0000	1270.36
454.5000	1318.25
455.0000	1360.48
455.5000	1396.28
456.0000	1425.7
456.5000	1448.78
457.0000	1465.75
457.5000	1477.2
458.0000	1483.01
458.5000	1482.86
459.0000	1477.81
459.5000	1468.13
460.0000	1457.45
460.5000	1443.31
461.0000	1424.65
461.5000	1403.26
462.0000	1378.47
462.5000	1351.59
463.0000	1322.91
463.5000	1292.53
464.0000	1261.22
464.5000	1230.11
465.0000	1197.13
465.5000	1163.35
466.0000	1129.53
466.5000	1096.89
467.0000	1063.75
467.5000	1032.21
468.0000	1001.21
468.5000	969.398
469.0000	940.103
469.5000	912.014
470.0000	885.858
470.5000	860.504
471.0000	836.442
471.5000	814.357
472.0000	794.294
472.5000	776.129
473.0000	760.244
473.5000	746.62
474.0000	735.49
474.5000	726.601
475.0000	720.753
475.5000	715.888
476.0000	715.233
476.5000	717.097
477.0000	720.738
477.5000	726.489
478.0000	735.303
478.5000	746.506
479.0000	760.246
479.5000	773.315
480.0000	788.372
480.5000	805.269
481.0000	822.636
481.5000	840.584
482.0000	858.651
482.5000	875.061
483.0000	891.273
483.5000	905.986
484.0000	920.999
484.5000	935.978
485.0000	947.807
485.5000	957.589
486.0000	965.921
486.5000	973.351
487.0000	980.108
487.5000	983.181
488.0000	984.586
488.5000	984.228
489.0000	981.345
489.5000	975.387
490.0000	967.583
490.5000	958.269
491.0000	945.244
491.5000	931.374
492.0000	913.72
492.5000	894.734
493.0000	873.899
493.5000	851.514
494.0000	828.721
494.5000	804.915
495.0000	779.383
495.5000	753.299
496.0000	727.583
496.5000	702.221
497.0000	677.848
497.5000	653.023
498.0000	627.421
498.5000	603.253
499.0000	580.63
499.5000	557.939
500.0000	535.912
500.5000	514.305
501.0000	494.658
501.5000	476.534
502.0000	459.178
502.5000	442.656
503.0000	426.387
503.5000	411.23
504.0000	397.805
504.5000	384.466
505.0000	371.789
505.5000	360.93
506.0000	350.73
506.5000	341.276
507.0000	332.621
507.5000	325.283
508.0000	318.349
508.5000	311.94
509.0000	306.032
509.5000	300.432
510.0000	296.18
510.5000	292.451
511.0000	288.991
511.5000	286.021
512.0000	283.297
512.5000	281.119
513.0000	279.292
513.5000	278.393
514.0000	276.596
514.5000	276.479
515.0000	275.95
515.5000	274.99
516.0000	275.066
516.5000	274.636
517.0000	275.113
517.5000	275.94
518.0000	276.196
518.5000	276.768
519.0000	277.869
519.5000	277.384
520.0000	278.236
520.5000	278.564
521.0000	278.7
521.5000	278.78
522.0000	279.834
522.5000	280.227
523.0000	280.353
523.5000	280.382
524.0000	280.245
524.5000	279.934
525.0000	279.572
525.5000	278.877
526.0000	278.48
526.5000	277.941
527.0000	277.084
527.5000	276.566
528.0000	275.409
528.5000	274.11
529.0000	272.933
529.5000	271.034
530.0000	268.923
530.5000	267.426
531.0000	265.716
531.5000	263.224
532.0000	260.383
532.5000	257.866
533.0000	255.366
533.5000	252.954
534.0000	249.614
534.5000	246.114
535.0000	243.145
535.5000	239.973
536.0000	236.622
536.5000	233.297
537.0000	230.728
537.5000	226.769
538.0000	223.528
538.5000	220.338
539.0000	216.997
539.5000	213.813
540.0000	210.441
540.5000	206.315
541.0000	202.962
541.5000	199.704
542.0000	196.402
542.5000	193.302
543.0000	189.782
543.5000	186.743
544.0000	184.15
544.5000	181.658
545.0000	178.601
545.5000	175.45
546.0000	172.715
546.5000	170.075
547.0000	167.965
547.5000	165.333
548.0000	162.661
548.5000	160.816
549.0000	158.55
549.5000	156.236
550.0000	153.707
550.5000	151.836
551.0000	149.92
551.5000	148.095
552.0000	146.291
552.5000	144.772
553.0000	143.147
553.5000	141.35
554.0000	139.372
554.5000	138.303
555.0000	137.218
555.5000	135.607
556.0000	133.703
556.5000	132.441
557.0000	131.492
557.5000	129.991
558.0000	128.639
558.5000	127.908
559.0000	126.505
559.5000	125.314
560.0000	123.955
560.5000	122.812
561.0000	121.486
561.5000	120.625
562.0000	119.744
562.5000	118.182
563.0000	116.887
563.5000	115.518
564.0000	114.91
564.5000	113.924
565.0000	112.629
565.5000	111.375
566.0000	109.688
566.5000	108.836
567.0000	107.777
567.5000	106.736
568.0000	105.294
568.5000	104.061
569.0000	103.059
569.5000	101.756
570.0000	100.757
570.5000	99.5942
571.0000	98.1456
571.5000	96.7866
572.0000	95.5828
572.5000	94.3129
573.0000	92.7485
573.5000	91.497
574.0000	90.3183
574.5000	89.6799
575.0000	88.2613
575.5000	86.7935
576.0000	85.4177
576.5000	84.0499
577.0000	83.0208
577.5000	81.8264
578.0000	80.3489
578.5000	79.4064
579.0000	78.1657
579.5000	76.6646
580.0000	75.4572
580.5000	74.3712
581.0000	73.1898
581.5000	71.7357
582.0000	70.7528
582.5000	69.9773
583.0000	69.0897
583.5000	67.6331
584.0000	67.0096
584.5000	65.9004
585.0000	64.5246
585.5000	63.6648
586.0000	62.4484
586.5000	61.5781
587.0000	60.6691
587.5000	59.4835
588.0000	58.7399
588.5000	57.7036
589.0000	56.6489
589.5000	55.7997
590.0000	55.0648
590.5000	54.1424
591.0000	53.3526
591.5000	52.5827
592.0000	51.5611
592.5000	50.9832
593.0000	49.8488
593.5000	49.2012
594.0000	48.4578
594.5000	48.0917
595.0000	47.1215
595.5000	46.3266
596.0000	45.5988
596.5000	44.6507
597.0000	44.2862
597.5000	43.7401
598.0000	42.9397
598.5000	42.1894
599.0000	41.6574
599.5000	40.9543
600.0000	40.3188
600.5000	39.9441
601.0000	39.4057
601.5000	38.9144
602.0000	38.3168
602.5000	37.5606
603.0000	36.9933
603.5000	36.4486
604.0000	36.0716
604.5000	35.6098
605.0000	35.0586
605.5000	34.677
606.0000	34.0994
606.5000	33.7134
607.0000	33.1227
607.5000	32.7286
608.0000	32.0539
608.5000	31.6501
609.0000	31.2201
609.5000	30.8674
610.0000	30.5048
610.5000	29.972
611.0000	29.4309
611.5000	29.0982
612.0000	28.6946
612.5000	28.1851
613.0000	27.8703
613.5000	27.4947
614.0000	27.2577
614.5000	26.6562
615.0000	26.2152
615.5000	25.9135
616.0000	25.62
616.5000	25.2335
617.0000	24.6381
617.5000	24.2625
618.0000	24.2367
618.5000	23.9414
619.0000	23.6046
619.5000	23.0457
620.0000	22.7607
620.5000	22.2936
621.0000	22.0145
621.5000	21.7071
622.0000	21.3428
622.5000	20.9419
623.0000	20.5568
623.5000	20.4244
624.0000	19.9091
624.5000	19.5365
625.0000	19.5154
625.5000	19.312
626.0000	18.9876
626.5000	18.6159
627.0000	18.2394
627.5000	18.0288
628.0000	17.8429
628.5000	17.506
629.0000	17.0375
629.5000	16.8427
630.0000	16.5079
630.5000	16.3587
631.0000	16.0927
631.5000	15.9326
632.0000	15.6877
632.5000	15.3086
633.0000	15.0646
633.5000	14.9033
634.0000	14.7549
634.5000	14.4045
635.0000	14.1628
635.5000	13.9019
636.0000	13.6648
636.5000	13.5607
637.0000	13.2699
637.5000	13.0464
638.0000	12.933
638.5000	12.7866
639.0000	12.5704
639.5000	12.3587
640.0000	12.1082
640.5000	11.903
641.0000	11.6116
641.5000	11.5596
642.0000	11.5114
642.5000	11.3014
643.0000	11.0265
643.5000	10.8656
644.0000	10.6186
644.5000	10.4683
645.0000	10.2296
645.5000	10.1667
646.0000	10.0652
646.5000	9.82404
647.0000	9.60965
647.5000	9.45178
648.0000	9.31291
648.5000	9.21476
649.0000	9.00946
649.5000	8.88128
650.0000	8.70756
650.5000	8.54022
651.0000	8.33621
651.5000	8.27416
652.0000	8.18445
652.5000	8.10267
653.0000	7.90207
653.5000	7.76375
654.0000	7.65433
654.5000	7.51142
655.0000	7.3973
655.5000	7.22055
656.0000	7.01547
656.5000	6.86351
657.0000	6.85388
657.5000	6.85488
658.0000	6.73984
658.5000	6.56811
659.0000	6.44135
659.5000	6.34663
660.0000	6.28621
660.5000	6.26843
661.0000	6.07219
661.5000	5.94474
662.0000	5.92874
662.5000	5.88983
663.0000	5.75965
663.5000	5.58455
664.0000	5.4126
664.5000	5.33937
665.0000	5.27002
665.5000	5.19868
666.0000	5.07732
666.5000	5.07557
667.0000	5.04661
667.5000	4.94371
668.0000	4.73309
668.5000	4.63505
669.0000	4.60648
669.5000	4.4686
670.0000	4.47567
670.5000	4.37699
671.0000	4.20646
671.5000	4.25636
672.0000	4.20478
672.5000	4.15222
673.0000	4.06481
673.5000	3.98735
674.0000	3.95462
674.5000	3.83657
675.0000	3.81794
675.5000	3.73515
676.0000	3.6992
676.5000	3.63653
677.0000	3.51512
677.5000	3.42182
678.0000	3.38705
678.5000	3.30873
679.0000	3.20793
679.5000	3.17285
680.0000	3.1205
680.5000	3.11824
681.0000	3.09292
681.5000	3.06801
682.0000	2.98402
682.5000	2.91764
683.0000	2.86622
683.5000	2.82122
684.0000	2.78853
684.5000	2.67519
685.0000	2.61562
685.5000	2.54573
686.0000	2.61826
686.5000	2.58557
687.0000	2.49241
687.5000	2.44445
688.0000	2.39123
688.5000	2.40693
689.0000	2.31135
689.5000	2.27907
690.0000	2.23472
690.5000	2.19417
691.0000	2.12948
691.5000	2.08839
692.0000	2.02583
692.5000	1.99211
693.0000	1.969
693.5000	1.95649
694.0000	1.90976
694.5000	1.92016
695.0000	1.86702
695.5000	1.82453
696.0000	1.8009
696.5000	1.8026
697.0000	1.73348
697.5000	1.6736
698.0000	1.65942
698.5000	1.6682
699.0000	1.65548
699.5000	1.61132
700.0000	1.56093

##### Extended Information
[コメント情報]
試料名
コメント
測定者
所属
会社	関西大学

[データ情報]
作成日時	2025/02/07 12:29

データタイプ	等間隔データ
横軸	Wavelength [nm]
縦軸	Int.
スタート	422 nm
エンド	700 nm
データ間隔	0.5 nm
データ数	557     

[測定情報]
機種名	FP-8300
シリアル番号	C037361450
  Ex側フォルダ	なし
  Em側フォルダ	なし

付属品名	SCE-846
付属品シリアルNo.	C037361450

測定日時	2025/02/07 12:29

測定モード	蛍光
励起側バンド幅	5 nm
蛍光側バンド幅	5 nm
レスポンス	0.1 sec
感度	Low
測定範囲	422 - 700 nm
データ取込間隔	0.5 nm
励起波長	422.0 nm
走査速度	500 nm/min
オートゲイン	Off
自動シャッタ制御	測定時のみ開く
光源	キセノンランプ
フィルタ	交換時にスキャンを停止する
ブランク補正	Off

