TITLE	
DATA TYPE	FLUORESCENCE SPECTRUM
ORIGIN	JASCO
OWNER	
DATE	25/05/12
TIME	19:54:18
SPECTROMETER/DATA SYSTEM	
LOCALE	1041
RESOLUTION	
DELTAX	0.5
XUNITS	NANOMETERS
YUNITS	INTENSITY
FIRSTX	  422.0000
LASTX	  700.0000
NPOINTS	     557
FIRSTY	    87.68140
MAXY	  1079.41516
MINY	     1.32189
XYDATA
422.0000	87.6814
422.5000	78.9252
423.0000	67.972
423.5000	56.7771
424.0000	45.4643
424.5000	34.4803
425.0000	25.1209
425.5000	17.5565
426.0000	12.0625
426.5000	8.15705
427.0000	5.75737
427.5000	4.26426
428.0000	3.46208
428.5000	3.16426
429.0000	3.11511
429.5000	3.22993
430.0000	3.43366
430.5000	3.69577
431.0000	4.06608
431.5000	4.58288
432.0000	5.05396
432.5000	5.59251
433.0000	6.284
433.5000	7.12012
434.0000	8.14444
434.5000	9.33271
435.0000	10.62
435.5000	12.2177
436.0000	14.0523
436.5000	16.3139
437.0000	18.8547
437.5000	21.9571
438.0000	25.416
438.5000	29.6269
439.0000	34.5326
439.5000	40.1833
440.0000	46.2735
440.5000	53.7035
441.0000	62.1002
441.5000	71.6612
442.0000	82.5659
442.5000	95.3107
443.0000	109.336
443.5000	125.105
444.0000	143.769
444.5000	165.747
445.0000	188.78
445.5000	214.353
446.0000	243.943
446.5000	276.194
447.0000	312.698
447.5000	352.271
448.0000	393.844
448.5000	438.605
449.0000	485.75
449.5000	534.86
450.0000	586.002
450.5000	638.119
451.0000	689.264
451.5000	738.832
452.0000	786.613
452.5000	834.363
453.0000	879.276
453.5000	918.424
454.0000	953.557
454.5000	985.066
455.0000	1012.37
455.5000	1034.81
456.0000	1051.48
456.5000	1065.07
457.0000	1074.78
457.5000	1079
458.0000	1079.42
458.5000	1078.07
459.0000	1071.09
459.5000	1062.35
460.0000	1051.01
460.5000	1037.66
461.0000	1020.54
461.5000	1002.88
462.0000	983.901
462.5000	963.528
463.0000	941.736
463.5000	919.698
464.0000	897.439
464.5000	873.89
465.0000	849.815
465.5000	825.234
466.0000	800.656
466.5000	776.175
467.0000	753.086
467.5000	730.433
468.0000	707.947
468.5000	685.624
469.0000	665.021
469.5000	645.076
470.0000	626.783
470.5000	609.614
471.0000	592.657
471.5000	577.503
472.0000	565.14
472.5000	553.92
473.0000	543.119
473.5000	534.997
474.0000	527.836
474.5000	522.054
475.0000	518.889
475.5000	518.131
476.0000	519.265
476.5000	522.261
477.0000	526.357
477.5000	531.834
478.0000	538.015
478.5000	546.973
479.0000	557.952
479.5000	569.211
480.0000	581.474
480.5000	593.779
481.0000	607.19
481.5000	619.761
482.0000	630.786
482.5000	643.812
483.0000	656.47
483.5000	667.793
484.0000	677.172
484.5000	687.288
485.0000	695.826
485.5000	702.651
486.0000	709.489
486.5000	714.262
487.0000	717.695
487.5000	720.196
488.0000	719.948
488.5000	719.384
489.0000	716.676
489.5000	712.324
490.0000	705.701
490.5000	696.582
491.0000	689.158
491.5000	679.378
492.0000	666.842
492.5000	652.105
493.0000	637.083
493.5000	620.428
494.0000	603.959
494.5000	586.75
495.0000	568.103
495.5000	548.966
496.0000	530.012
496.5000	512.135
497.0000	494.119
497.5000	475.569
498.0000	457.738
498.5000	441.694
499.0000	424.397
499.5000	407.985
500.0000	392.9
500.5000	377.175
501.0000	363.046
501.5000	350.001
502.0000	337.385
502.5000	325.191
503.0000	313.585
503.5000	302.723
504.0000	292.249
504.5000	283.29
505.0000	275.539
505.5000	267.586
506.0000	259.855
506.5000	253.783
507.0000	248.354
507.5000	243.078
508.0000	238.369
508.5000	233.547
509.0000	229.69
509.5000	226.126
510.0000	223.209
510.5000	220.888
511.0000	218.883
511.5000	217.718
512.0000	216.05
512.5000	214.808
513.0000	214.361
513.5000	213.498
514.0000	212.461
514.5000	211.808
515.0000	211.743
515.5000	212.592
516.0000	212.777
516.5000	212.83
517.0000	213.403
517.5000	213.594
518.0000	214.528
518.5000	215.156
519.0000	215.266
519.5000	215.826
520.0000	216.174
520.5000	217.116
521.0000	217.074
521.5000	217.593
522.0000	218.281
522.5000	217.8
523.0000	217.861
523.5000	218.901
524.0000	219.445
524.5000	218.467
525.0000	218.54
525.5000	218.419
526.0000	218.08
526.5000	217.803
527.0000	217.334
527.5000	216.657
528.0000	216.017
528.5000	214.481
529.0000	213.096
529.5000	212.653
530.0000	211.268
530.5000	210.016
531.0000	208.994
531.5000	207.223
532.0000	205.43
532.5000	203.084
533.0000	201.357
533.5000	199.465
534.0000	196.945
534.5000	194.91
535.0000	192.535
535.5000	189.834
536.0000	188.219
536.5000	185.998
537.0000	183.218
537.5000	180.944
538.0000	178.783
538.5000	176.316
539.0000	173.864
539.5000	171.421
540.0000	168.348
540.5000	166.417
541.0000	163.603
541.5000	161.106
542.0000	159.088
542.5000	156.944
543.0000	154.659
543.5000	152.415
544.0000	150.149
544.5000	148.482
545.0000	146.119
545.5000	143.947
546.0000	141.879
546.5000	140.257
547.0000	138.936
547.5000	136.862
548.0000	135.001
548.5000	133.182
549.0000	131.493
549.5000	130.214
550.0000	128.581
550.5000	126.829
551.0000	125.59
551.5000	124.528
552.0000	123.176
552.5000	121.676
553.0000	120.661
553.5000	119.887
554.0000	118.353
554.5000	117.148
555.0000	115.905
555.5000	115.138
556.0000	114.073
556.5000	113.051
557.0000	112.337
557.5000	111.392
558.0000	110.119
558.5000	109.487
559.0000	108.248
559.5000	106.992
560.0000	106.047
560.5000	105.3
561.0000	104.661
561.5000	103.654
562.0000	102.765
562.5000	101.918
563.0000	100.824
563.5000	100.262
564.0000	99.2668
564.5000	98.2364
565.0000	97.1506
565.5000	96.2005
566.0000	95.2565
566.5000	94.312
567.0000	93.4136
567.5000	92.5346
568.0000	91.4476
568.5000	90.3855
569.0000	89.8524
569.5000	88.9534
570.0000	87.5541
570.5000	86.2566
571.0000	85.6793
571.5000	84.6318
572.0000	83.617
572.5000	82.7029
573.0000	81.6776
573.5000	80.5234
574.0000	79.8028
574.5000	78.8167
575.0000	77.6459
575.5000	76.3196
576.0000	75.5276
576.5000	74.5069
577.0000	73.4525
577.5000	72.354
578.0000	71.4728
578.5000	70.6379
579.0000	69.5761
579.5000	68.7401
580.0000	67.9784
580.5000	67.084
581.0000	65.9872
581.5000	64.7622
582.0000	64.0795
582.5000	63.2909
583.0000	62.5206
583.5000	61.3984
584.0000	60.5729
584.5000	59.7294
585.0000	58.8051
585.5000	58.0118
586.0000	56.8218
586.5000	56.3137
587.0000	55.6883
587.5000	54.6853
588.0000	53.9722
588.5000	53.1409
589.0000	52.3916
589.5000	51.6546
590.0000	50.9173
590.5000	50.0454
591.0000	49.5715
591.5000	48.8338
592.0000	48.0534
592.5000	47.4183
593.0000	46.3993
593.5000	45.958
594.0000	45.2224
594.5000	44.6027
595.0000	44.1534
595.5000	43.329
596.0000	42.8269
596.5000	42.0582
597.0000	41.7696
597.5000	41.3573
598.0000	40.85
598.5000	40.2611
599.0000	39.5032
599.5000	38.8561
600.0000	38.5067
600.5000	38.0072
601.0000	37.5512
601.5000	36.9541
602.0000	36.383
602.5000	36.0104
603.0000	35.2511
603.5000	34.8116
604.0000	34.5161
604.5000	33.9284
605.0000	33.5657
605.5000	33.1744
606.0000	32.5472
606.5000	31.94
607.0000	31.5268
607.5000	31.1003
608.0000	30.7888
608.5000	30.5538
609.0000	30.0946
609.5000	29.6901
610.0000	29.3608
610.5000	28.9586
611.0000	28.4818
611.5000	28.2018
612.0000	27.8922
612.5000	27.4807
613.0000	26.9697
613.5000	26.679
614.0000	26.2662
614.5000	25.8426
615.0000	25.4198
615.5000	25.2362
616.0000	24.8992
616.5000	24.5001
617.0000	24.2242
617.5000	23.6541
618.0000	23.4866
618.5000	23.1219
619.0000	22.8551
619.5000	22.3269
620.0000	22.1015
620.5000	21.9576
621.0000	21.5712
621.5000	21.1341
622.0000	20.867
622.5000	20.6218
623.0000	20.3542
623.5000	20.0842
624.0000	19.5848
624.5000	19.4183
625.0000	19.0332
625.5000	18.7264
626.0000	18.5423
626.5000	18.3911
627.0000	18.088
627.5000	17.6434
628.0000	17.2732
628.5000	17.2133
629.0000	16.9498
629.5000	16.5904
630.0000	16.3734
630.5000	16.1764
631.0000	15.748
631.5000	15.7195
632.0000	15.5287
632.5000	15.0999
633.0000	14.9242
633.5000	14.6554
634.0000	14.4474
634.5000	14.2209
635.0000	13.9557
635.5000	13.7687
636.0000	13.6201
636.5000	13.4905
637.0000	13.0505
637.5000	12.9512
638.0000	12.7467
638.5000	12.5504
639.0000	12.3881
639.5000	12.153
640.0000	11.9733
640.5000	11.6741
641.0000	11.466
641.5000	11.2917
642.0000	11.1126
642.5000	10.8696
643.0000	10.8122
643.5000	10.7233
644.0000	10.4828
644.5000	10.36
645.0000	10.0546
645.5000	9.91327
646.0000	9.76037
646.5000	9.58963
647.0000	9.39334
647.5000	9.35279
648.0000	9.29211
648.5000	9.17355
649.0000	8.96625
649.5000	8.74588
650.0000	8.60208
650.5000	8.51273
651.0000	8.37668
651.5000	8.27781
652.0000	8.13064
652.5000	8.00832
653.0000	7.94842
653.5000	7.65815
654.0000	7.63563
654.5000	7.5402
655.0000	7.35748
655.5000	7.22576
656.0000	7.13292
656.5000	6.97234
657.0000	6.80588
657.5000	6.69719
658.0000	6.66671
658.5000	6.46859
659.0000	6.41025
659.5000	6.35403
660.0000	6.19217
660.5000	6.03192
661.0000	5.97872
661.5000	5.94614
662.0000	5.818
662.5000	5.70084
663.0000	5.57647
663.5000	5.50517
664.0000	5.3225
664.5000	5.22175
665.0000	5.18396
665.5000	5.06835
666.0000	5.00398
666.5000	5.00067
667.0000	4.92734
667.5000	4.75016
668.0000	4.67994
668.5000	4.61681
669.0000	4.54262
669.5000	4.47928
670.0000	4.41767
670.5000	4.33382
671.0000	4.21185
671.5000	4.13299
672.0000	4.04703
672.5000	3.97497
673.0000	3.88158
673.5000	3.81896
674.0000	3.80598
674.5000	3.71438
675.0000	3.62201
675.5000	3.52651
676.0000	3.51926
676.5000	3.50314
677.0000	3.37447
677.5000	3.44548
678.0000	3.37415
678.5000	3.21178
679.0000	3.13988
679.5000	3.09371
680.0000	3.05423
680.5000	3.00563
681.0000	2.97786
681.5000	2.87121
682.0000	2.78922
682.5000	2.7725
683.0000	2.74488
683.5000	2.72295
684.0000	2.63162
684.5000	2.57748
685.0000	2.47638
685.5000	2.47069
686.0000	2.39865
686.5000	2.32238
687.0000	2.249
687.5000	2.19626
688.0000	2.11862
688.5000	2.16038
689.0000	2.1807
689.5000	2.14659
690.0000	2.06243
690.5000	2.078
691.0000	1.94843
691.5000	1.91107
692.0000	1.90875
692.5000	1.87782
693.0000	1.79625
693.5000	1.7877
694.0000	1.8173
694.5000	1.72267
695.0000	1.74063
695.5000	1.64903
696.0000	1.62317
696.5000	1.56242
697.0000	1.52892
697.5000	1.53266
698.0000	1.52536
698.5000	1.46392
699.0000	1.44193
699.5000	1.40354
700.0000	1.32189

##### Extended Information
[コメント情報]
試料名
コメント
測定者
所属
会社	関西大学

[データ情報]
作成日時	2025/05/12 19:54

データタイプ	等間隔データ
横軸	Wavelength [nm]
縦軸	Int.
スタート	422 nm
エンド	700 nm
データ間隔	0.5 nm
データ数	557     

[測定情報]
機種名	FP-8300
シリアル番号	C037361450
  Ex側フォルダ	なし
  Em側フォルダ	なし

付属品名	SCE-846
付属品シリアルNo.	C037361450

測定日時	2025/05/12 19:54

測定モード	蛍光
励起側バンド幅	5 nm
蛍光側バンド幅	5 nm
レスポンス	0.1 sec
感度	Low
測定範囲	422 - 700 nm
データ取込間隔	0.5 nm
励起波長	422.0 nm
走査速度	500 nm/min
オートゲイン	Off
自動シャッタ制御	測定時のみ開く
光源	キセノンランプ
フィルタ	交換時にスキャンを停止する
ブランク補正	Off

