TITLE	
DATA TYPE	FLUORESCENCE SPECTRUM
ORIGIN	JASCO
OWNER	
DATE	25/04/13
TIME	22:30:40
SPECTROMETER/DATA SYSTEM	
LOCALE	1041
RESOLUTION	
DELTAX	0.5
XUNITS	NANOMETERS
YUNITS	INTENSITY
FIRSTX	  422.0000
LASTX	  700.0000
NPOINTS	     557
FIRSTY	   143.95335
MAXY	  2235.60132
MINY	     3.16357
XYDATA
422.0000	143.953
422.5000	124.536
423.0000	104.259
423.5000	83.402
424.0000	64.1713
424.5000	46.7565
425.0000	32.4872
425.5000	22.1562
426.0000	15.2454
426.5000	10.6942
427.0000	8.03203
427.5000	6.58441
428.0000	5.82618
428.5000	5.75768
429.0000	5.94379
429.5000	6.35097
430.0000	6.84234
430.5000	7.39406
431.0000	8.0954
431.5000	8.89346
432.0000	9.78644
432.5000	10.8012
433.0000	12.1571
433.5000	13.7212
434.0000	15.4588
434.5000	17.5398
435.0000	20.0326
435.5000	23.0994
436.0000	26.7037
436.5000	30.6975
437.0000	35.2337
437.5000	40.9271
438.0000	47.4903
438.5000	55.325
439.0000	64.3548
439.5000	74.7583
440.0000	86.7314
440.5000	100.15
441.0000	115.988
441.5000	134.495
442.0000	154.737
442.5000	178.525
443.0000	205.07
443.5000	235.473
444.0000	270.996
444.5000	310.453
445.0000	353.494
445.5000	403.23
446.0000	458.932
446.5000	521.071
447.0000	590.055
447.5000	666.25
448.0000	747.085
448.5000	833.053
449.0000	926.889
449.5000	1025.16
450.0000	1127.41
450.5000	1232.52
451.0000	1337.49
451.5000	1442.74
452.0000	1544.47
452.5000	1644.75
453.0000	1740.66
453.5000	1830.06
454.0000	1909.06
454.5000	1979.98
455.0000	2044.3
455.5000	2099.67
456.0000	2144.46
456.5000	2179.3
457.0000	2205.81
457.5000	2223.67
458.0000	2233.29
458.5000	2235.6
459.0000	2229.47
459.5000	2219.87
460.0000	2204.26
460.5000	2180.62
461.0000	2155.85
461.5000	2125.7
462.0000	2093.22
462.5000	2055.78
463.0000	2014.25
463.5000	1972.34
464.0000	1931.91
464.5000	1886.38
465.0000	1837.76
465.5000	1789.17
466.0000	1743.52
466.5000	1697.88
467.0000	1651.71
467.5000	1604.98
468.0000	1558.98
468.5000	1515.12
469.0000	1472.11
469.5000	1431.65
470.0000	1392.66
470.5000	1354.83
471.0000	1319.16
471.5000	1289.03
472.0000	1262.19
472.5000	1235.92
473.0000	1211.25
473.5000	1192.13
474.0000	1176.66
474.5000	1163.62
475.0000	1155.01
475.5000	1150.02
476.0000	1149.81
476.5000	1151.91
477.0000	1156.49
477.5000	1166.83
478.0000	1180.82
478.5000	1195.93
479.0000	1215.79
479.5000	1237.04
480.0000	1260.43
480.5000	1286.03
481.0000	1313.02
481.5000	1340.06
482.0000	1367.85
482.5000	1394.69
483.0000	1421.93
483.5000	1446.43
484.0000	1470.53
484.5000	1492.94
485.0000	1512.04
485.5000	1529.53
486.0000	1546.09
486.5000	1558.91
487.0000	1567.98
487.5000	1574.8
488.0000	1579.51
488.5000	1581.62
489.0000	1579.75
489.5000	1573.03
490.0000	1561.09
490.5000	1547.07
491.0000	1531.38
491.5000	1511
492.0000	1486.77
492.5000	1458.94
493.0000	1427.57
493.5000	1396.64
494.0000	1361.06
494.5000	1324.33
495.0000	1285.11
495.5000	1246.34
496.0000	1207.44
496.5000	1169.82
497.0000	1131.27
497.5000	1093.38
498.0000	1053.83
498.5000	1017.73
499.0000	982.974
499.5000	946.907
500.0000	913.608
500.5000	882.062
501.0000	851.636
501.5000	822.106
502.0000	794.941
502.5000	768.407
503.0000	743.125
503.5000	720.096
504.0000	698.909
504.5000	679.317
505.0000	659.636
505.5000	642.766
506.0000	627.091
506.5000	611.822
507.0000	598.898
507.5000	585.462
508.0000	575.146
508.5000	566.401
509.0000	556.782
509.5000	548.497
510.0000	541.704
510.5000	535.63
511.0000	530.366
511.5000	526.147
512.0000	521.409
512.5000	518.297
513.0000	515.596
513.5000	513.131
514.0000	511.599
514.5000	512.08
515.0000	511.536
515.5000	509.843
516.0000	509.805
516.5000	509.664
517.0000	509.913
517.5000	510.209
518.0000	511.534
518.5000	512.652
519.0000	512.158
519.5000	513.097
520.0000	515.392
520.5000	516.286
521.0000	516.857
521.5000	517.579
522.0000	517.916
522.5000	518.209
523.0000	517.878
523.5000	518.774
524.0000	519.798
524.5000	520.201
525.0000	519.68
525.5000	518.44
526.0000	518.067
526.5000	517.079
527.0000	515.812
527.5000	515.147
528.0000	513.561
528.5000	511.163
529.0000	508.789
529.5000	506.638
530.0000	504.073
530.5000	500.56
531.0000	496.097
531.5000	492.123
532.0000	487.528
532.5000	483.887
533.0000	480.038
533.5000	475.248
534.0000	469.318
534.5000	464.528
535.0000	459.569
535.5000	453.361
536.0000	448.049
536.5000	442.846
537.0000	436.835
537.5000	430.76
538.0000	424.939
538.5000	419.267
539.0000	413.808
539.5000	407.436
540.0000	401.128
540.5000	393.918
541.0000	387.998
541.5000	382.329
542.0000	376.855
542.5000	371.553
543.0000	365.731
543.5000	359.26
544.0000	353.731
544.5000	349.171
545.0000	344.172
545.5000	338.885
546.0000	334.176
546.5000	329.314
547.0000	323.688
547.5000	319.378
548.0000	315.284
548.5000	310.846
549.0000	306.368
549.5000	302.953
550.0000	298.803
550.5000	294.688
551.0000	291.02
551.5000	287.529
552.0000	284.501
552.5000	281.513
553.0000	277.517
553.5000	273.91
554.0000	270.636
554.5000	266.972
555.0000	264.616
555.5000	261.702
556.0000	258.552
556.5000	255.985
557.0000	253.898
557.5000	251.265
558.0000	248.217
558.5000	245.841
559.0000	243.321
559.5000	240.327
560.0000	238.123
560.5000	235.709
561.0000	233.101
561.5000	231.202
562.0000	228.413
562.5000	225.539
563.0000	223.711
563.5000	221.505
564.0000	219.269
564.5000	217.344
565.0000	215.195
565.5000	212.951
566.0000	209.866
566.5000	206.769
567.0000	204.823
567.5000	202.737
568.0000	200.036
568.5000	197.113
569.0000	194.443
569.5000	192.965
570.0000	190.979
570.5000	188.742
571.0000	186.094
571.5000	183.72
572.0000	181.245
572.5000	179.043
573.0000	176.369
573.5000	174.08
574.0000	171.789
574.5000	169.513
575.0000	167.223
575.5000	164.704
576.0000	162.186
576.5000	159.986
577.0000	158.123
577.5000	155.45
578.0000	152.811
578.5000	150.518
579.0000	148.693
579.5000	146.951
580.0000	144.739
580.5000	142.405
581.0000	140.233
581.5000	137.811
582.0000	135.883
582.5000	134.108
583.0000	132.154
583.5000	130.152
584.0000	127.788
584.5000	125.811
585.0000	123.891
585.5000	121.932
586.0000	120.214
586.5000	118.718
587.0000	116.839
587.5000	114.892
588.0000	113.214
588.5000	111.316
589.0000	109.659
589.5000	107.88
590.0000	106.052
590.5000	104.884
591.0000	103.208
591.5000	101.6
592.0000	100.138
592.5000	98.2859
593.0000	96.7681
593.5000	95.3853
594.0000	94.0175
594.5000	92.725
595.0000	91.2602
595.5000	89.6106
596.0000	88.3206
596.5000	87.0066
597.0000	85.9479
597.5000	84.741
598.0000	83.5121
598.5000	82.2378
599.0000	81.1378
599.5000	80.003
600.0000	78.7191
600.5000	77.45
601.0000	76.3526
601.5000	74.9978
602.0000	74.2112
602.5000	73.2691
603.0000	72.3227
603.5000	71.0554
604.0000	70.1345
604.5000	69.0435
605.0000	67.9873
605.5000	66.9461
606.0000	66.2599
606.5000	65.2802
607.0000	64.2587
607.5000	63.3559
608.0000	62.5464
608.5000	61.6928
609.0000	60.6786
609.5000	59.629
610.0000	58.685
610.5000	57.9489
611.0000	57.5433
611.5000	56.6802
612.0000	55.6757
612.5000	54.8883
613.0000	54.102
613.5000	53.5541
614.0000	52.5125
614.5000	51.905
615.0000	51.2657
615.5000	50.3278
616.0000	49.7218
616.5000	48.8916
617.0000	48.2185
617.5000	47.5483
618.0000	46.3873
618.5000	46.0834
619.0000	45.399
619.5000	44.7173
620.0000	44.0526
620.5000	43.3201
621.0000	42.7075
621.5000	42.2675
622.0000	41.3885
622.5000	40.7262
623.0000	40.2933
623.5000	39.6031
624.0000	38.9288
624.5000	38.2837
625.0000	37.6927
625.5000	37.1349
626.0000	36.5193
626.5000	36.0284
627.0000	35.7129
627.5000	35.0508
628.0000	34.4473
628.5000	33.9727
629.0000	33.4007
629.5000	32.8979
630.0000	32.35
630.5000	31.8625
631.0000	31.5291
631.5000	30.9788
632.0000	30.6506
632.5000	30.0946
633.0000	29.5281
633.5000	28.9826
634.0000	28.5634
634.5000	28.1325
635.0000	27.6169
635.5000	27.2204
636.0000	26.743
636.5000	26.2539
637.0000	26.0292
637.5000	25.6292
638.0000	25.0535
638.5000	24.7112
639.0000	24.2671
639.5000	23.8878
640.0000	23.4831
640.5000	23.0854
641.0000	22.788
641.5000	22.5109
642.0000	22.2332
642.5000	21.7916
643.0000	21.3498
643.5000	20.9861
644.0000	20.7099
644.5000	20.2986
645.0000	20.0218
645.5000	19.7071
646.0000	19.4456
646.5000	19.068
647.0000	18.717
647.5000	18.4955
648.0000	18.2576
648.5000	17.8494
649.0000	17.5545
649.5000	17.3066
650.0000	17.1103
650.5000	16.7263
651.0000	16.5214
651.5000	16.2458
652.0000	15.9456
652.5000	15.7922
653.0000	15.6681
653.5000	15.244
654.0000	15.0229
654.5000	14.7517
655.0000	14.3566
655.5000	14.3026
656.0000	14.1237
656.5000	13.8415
657.0000	13.5174
657.5000	13.3427
658.0000	13.0669
658.5000	12.8635
659.0000	12.5604
659.5000	12.3887
660.0000	12.2313
660.5000	12.0986
661.0000	11.9005
661.5000	11.5478
662.0000	11.4581
662.5000	11.2577
663.0000	10.9998
663.5000	10.8549
664.0000	10.667
664.5000	10.5707
665.0000	10.3995
665.5000	10.1356
666.0000	9.98786
666.5000	9.87506
667.0000	9.79027
667.5000	9.54663
668.0000	9.38332
668.5000	9.31895
669.0000	9.09597
669.5000	8.79994
670.0000	8.76101
670.5000	8.60867
671.0000	8.55947
671.5000	8.39729
672.0000	8.27486
672.5000	8.03607
673.0000	7.9474
673.5000	7.7758
674.0000	7.70963
674.5000	7.54564
675.0000	7.44024
675.5000	7.35103
676.0000	7.21589
676.5000	7.0773
677.0000	6.93759
677.5000	6.77535
678.0000	6.74854
678.5000	6.63526
679.0000	6.48593
679.5000	6.39313
680.0000	6.31558
680.5000	6.20705
681.0000	6.09859
681.5000	5.96626
682.0000	5.93161
682.5000	5.88471
683.0000	5.77836
683.5000	5.63526
684.0000	5.54385
684.5000	5.4474
685.0000	5.36734
685.5000	5.24231
686.0000	5.10315
686.5000	5.08132
687.0000	4.95388
687.5000	4.91085
688.0000	4.8636
688.5000	4.68656
689.0000	4.68495
689.5000	4.5706
690.0000	4.44668
690.5000	4.42338
691.0000	4.29511
691.5000	4.21175
692.0000	4.23295
692.5000	4.1784
693.0000	4.07809
693.5000	4.06481
694.0000	3.903
694.5000	3.884
695.0000	3.76818
695.5000	3.63908
696.0000	3.68068
696.5000	3.64049
697.0000	3.53846
697.5000	3.55414
698.0000	3.43906
698.5000	3.39748
699.0000	3.32939
699.5000	3.16668
700.0000	3.16357

##### Extended Information
[コメント情報]
試料名
コメント
測定者
所属
会社	関西大学

[データ情報]
作成日時	2025/04/13 22:30

データタイプ	等間隔データ
横軸	Wavelength [nm]
縦軸	Int.
スタート	422 nm
エンド	700 nm
データ間隔	0.5 nm
データ数	557     

[測定情報]
機種名	FP-8300
シリアル番号	C037361450
  Ex側フォルダ	なし
  Em側フォルダ	なし

付属品名	SCE-846
付属品シリアルNo.	C037361450

測定日時	2025/04/13 22:30

測定モード	蛍光
励起側バンド幅	5 nm
蛍光側バンド幅	5 nm
レスポンス	0.1 sec
感度	Low
測定範囲	422 - 700 nm
データ取込間隔	0.5 nm
励起波長	422.0 nm
走査速度	500 nm/min
オートゲイン	Off
自動シャッタ制御	測定時のみ開く
光源	キセノンランプ
フィルタ	交換時にスキャンを停止する
ブランク補正	Off

