TITLE	
DATA TYPE	FLUORESCENCE SPECTRUM
ORIGIN	JASCO
OWNER	
DATE	25/05/07
TIME	19:19:42
SPECTROMETER/DATA SYSTEM	
LOCALE	1041
RESOLUTION	
DELTAX	0.5
XUNITS	NANOMETERS
YUNITS	INTENSITY
FIRSTX	  422.0000
LASTX	  700.0000
NPOINTS	     557
FIRSTY	   719.78839
MAXY	  1925.60168
MINY	     1.16606
XYDATA
422.0000	719.788
422.5000	654.349
423.0000	572.534
423.5000	479.747
424.0000	384.997
424.5000	293.757
425.0000	212.715
425.5000	146.554
426.0000	96.9944
426.5000	60.6118
427.0000	38.0329
427.5000	23.6905
428.0000	14.6252
428.5000	10.2909
429.0000	8.21936
429.5000	7.40186
430.0000	7.28985
430.5000	7.48815
431.0000	7.83971
431.5000	8.34443
432.0000	8.89261
432.5000	9.63948
433.0000	10.4357
433.5000	11.5793
434.0000	12.8109
434.5000	14.1597
435.0000	15.8889
435.5000	17.7666
436.0000	20.103
436.5000	22.9877
437.0000	26.0756
437.5000	29.9887
438.0000	34.5639
438.5000	39.8747
439.0000	46.2834
439.5000	53.6702
440.0000	62.0763
440.5000	71.8602
441.0000	83.0098
441.5000	96.4721
442.0000	111.262
442.5000	128.425
443.0000	147.428
443.5000	169.433
444.0000	195.76
444.5000	225.328
445.0000	258.011
445.5000	294.642
446.0000	337.308
446.5000	384.464
447.0000	438.242
447.5000	497.987
448.0000	563.252
448.5000	634.325
449.0000	711.696
449.5000	795.014
450.0000	883.023
450.5000	976.044
451.0000	1068.86
451.5000	1163.84
452.0000	1258.35
452.5000	1353.2
453.0000	1443.23
453.5000	1528.59
454.0000	1606.37
454.5000	1675.79
455.0000	1740.3
455.5000	1795.96
456.0000	1837.62
456.5000	1871
457.0000	1896.99
457.5000	1913.16
458.0000	1922.65
458.5000	1925.6
459.0000	1916.72
459.5000	1902.13
460.0000	1884.43
460.5000	1863.95
461.0000	1837.11
461.5000	1806.23
462.0000	1773.45
462.5000	1735.59
463.0000	1696.1
463.5000	1657.78
464.0000	1616.02
464.5000	1570.68
465.0000	1526.28
465.5000	1483.14
466.0000	1439.72
466.5000	1395.8
467.0000	1352.5
467.5000	1307.79
468.0000	1263.79
468.5000	1222.74
469.0000	1183.11
469.5000	1147.04
470.0000	1111.65
470.5000	1077.88
471.0000	1045.31
471.5000	1015.2
472.0000	988.322
472.5000	962.756
473.0000	940.191
473.5000	920.92
474.0000	903.983
474.5000	890.632
475.0000	880.826
475.5000	874.274
476.0000	868.787
476.5000	867.354
477.0000	871.329
477.5000	876.535
478.0000	885.395
478.5000	896.855
479.0000	912.53
479.5000	930.671
480.0000	950.142
480.5000	969.43
481.0000	990.447
481.5000	1013.89
482.0000	1038.36
482.5000	1061.24
483.0000	1082.65
483.5000	1102.79
484.0000	1123.8
484.5000	1143.55
485.0000	1158.56
485.5000	1172.71
486.0000	1184.88
486.5000	1195.13
487.0000	1202.45
487.5000	1207.76
488.0000	1210.15
488.5000	1209.77
489.0000	1207.32
489.5000	1201.17
490.0000	1191.74
490.5000	1179.61
491.0000	1164.33
491.5000	1147.12
492.0000	1125.16
492.5000	1101.45
493.0000	1076.84
493.5000	1049.1
494.0000	1019.37
494.5000	988.241
495.0000	956.027
495.5000	922.098
496.0000	889.258
496.5000	857.35
497.0000	825.374
497.5000	793.245
498.0000	761.988
498.5000	730.496
499.0000	701.137
499.5000	673.439
500.0000	645.543
500.5000	618.611
501.0000	593.831
501.5000	570.12
502.0000	547.686
502.5000	526.652
503.0000	505.714
503.5000	485.917
504.0000	469.127
504.5000	452.508
505.0000	436.525
505.5000	423.22
506.0000	410.034
506.5000	397.973
507.0000	387.635
507.5000	376.86
508.0000	367.699
508.5000	359.462
509.0000	351.534
509.5000	344.856
510.0000	338.955
510.5000	333.219
511.0000	328.767
511.5000	324.854
512.0000	321.756
512.5000	318.971
513.0000	316.375
513.5000	314.186
514.0000	312.173
514.5000	311.315
515.0000	310.442
515.5000	309.676
516.0000	309.074
516.5000	308.759
517.0000	309.367
517.5000	309.312
518.0000	309.139
518.5000	309.218
519.0000	309.436
519.5000	309.991
520.0000	309.722
520.5000	308.868
521.0000	309.619
521.5000	309.67
522.0000	309.838
522.5000	309.57
523.0000	309.572
523.5000	309.33
524.0000	308.173
524.5000	307.433
525.0000	306.034
525.5000	305.897
526.0000	305.01
526.5000	303.455
527.0000	301.067
527.5000	299.509
528.0000	297.772
528.5000	295.3
529.0000	293.266
529.5000	291.111
530.0000	288.356
530.5000	285.634
531.0000	282.548
531.5000	278.83
532.0000	275.831
532.5000	272.583
533.0000	269.187
533.5000	264.568
534.0000	260.697
534.5000	257.335
535.0000	253.223
535.5000	249.464
536.0000	245.307
536.5000	241.665
537.0000	237.444
537.5000	233.078
538.0000	229.473
538.5000	225.358
539.0000	220.678
539.5000	216.856
540.0000	212.775
540.5000	208.086
541.0000	204.395
541.5000	200.521
542.0000	197.144
542.5000	193.41
543.0000	189.553
543.5000	186.317
544.0000	182.891
544.5000	179.933
545.0000	176.878
545.5000	173.513
546.0000	169.861
546.5000	167.143
547.0000	164.868
547.5000	161.71
548.0000	159.704
548.5000	157.082
549.0000	154.394
549.5000	151.96
550.0000	150.212
550.5000	148.322
551.0000	146.164
551.5000	143.77
552.0000	142.123
552.5000	140.709
553.0000	138.877
553.5000	137.356
554.0000	135.684
554.5000	134.336
555.0000	133.052
555.5000	131.451
556.0000	129.993
556.5000	128.622
557.0000	127.558
557.5000	126.418
558.0000	125.1
558.5000	123.896
559.0000	122.988
559.5000	122.008
560.0000	120.681
560.5000	118.97
561.0000	117.962
561.5000	116.938
562.0000	115.998
562.5000	114.798
563.0000	113.446
563.5000	112.54
564.0000	111.366
564.5000	110.312
565.0000	109.454
565.5000	108.19
566.0000	106.965
566.5000	106.014
567.0000	104.692
567.5000	103.587
568.0000	102.147
568.5000	101.091
569.0000	99.6944
569.5000	98.4895
570.0000	97.2539
570.5000	95.8633
571.0000	94.7249
571.5000	93.7934
572.0000	92.4282
572.5000	91.1666
573.0000	90.1972
573.5000	88.5611
574.0000	87.0204
574.5000	85.3606
575.0000	84.1213
575.5000	83.1596
576.0000	81.6516
576.5000	80.4304
577.0000	79.3076
577.5000	77.7437
578.0000	76.519
578.5000	75.4107
579.0000	74.2895
579.5000	72.6168
580.0000	71.2132
580.5000	70.0007
581.0000	68.698
581.5000	67.7214
582.0000	66.5488
582.5000	65.0578
583.0000	63.9044
583.5000	63.1948
584.0000	61.8231
584.5000	60.5576
585.0000	59.5932
585.5000	58.3656
586.0000	57.5771
586.5000	56.5606
587.0000	55.4578
587.5000	54.418
588.0000	53.4676
588.5000	52.2295
589.0000	51.3794
589.5000	50.4778
590.0000	49.6286
590.5000	48.8925
591.0000	48.0018
591.5000	47.0632
592.0000	45.965
592.5000	45.3069
593.0000	44.4671
593.5000	43.6495
594.0000	42.736
594.5000	42.1384
595.0000	41.5932
595.5000	40.6968
596.0000	40.0571
596.5000	39.2357
597.0000	38.7
597.5000	37.9147
598.0000	37.2983
598.5000	36.8501
599.0000	36.05
599.5000	35.3901
600.0000	34.8618
600.5000	34.4658
601.0000	33.7245
601.5000	33.0895
602.0000	32.6456
602.5000	32.0398
603.0000	31.5469
603.5000	31.2363
604.0000	30.62
604.5000	30.1787
605.0000	29.6486
605.5000	29.1254
606.0000	28.7463
606.5000	28.33
607.0000	27.9799
607.5000	27.573
608.0000	27.0007
608.5000	26.506
609.0000	26.1497
609.5000	25.6397
610.0000	25.1623
610.5000	24.9209
611.0000	24.4954
611.5000	24.2315
612.0000	24.0081
612.5000	23.5648
613.0000	22.8688
613.5000	22.6574
614.0000	22.4226
614.5000	22.0297
615.0000	21.6342
615.5000	21.2862
616.0000	20.8397
616.5000	20.4876
617.0000	20.2636
617.5000	19.9189
618.0000	19.7309
618.5000	19.3843
619.0000	18.8993
619.5000	18.8228
620.0000	18.4806
620.5000	18.1204
621.0000	17.8122
621.5000	17.5725
622.0000	17.346
622.5000	16.8904
623.0000	16.5964
623.5000	16.2981
624.0000	15.8476
624.5000	15.6362
625.0000	15.4144
625.5000	15.2488
626.0000	15.0638
626.5000	14.7323
627.0000	14.3466
627.5000	14.2016
628.0000	13.9952
628.5000	13.7305
629.0000	13.5673
629.5000	13.3995
630.0000	13.0336
630.5000	12.7774
631.0000	12.5377
631.5000	12.4364
632.0000	12.2078
632.5000	11.8787
633.0000	11.6365
633.5000	11.5771
634.0000	11.3605
634.5000	11.1105
635.0000	10.962
635.5000	10.7516
636.0000	10.5395
636.5000	10.2619
637.0000	10.1328
637.5000	10.0332
638.0000	9.74776
638.5000	9.46918
639.0000	9.48038
639.5000	9.24506
640.0000	9.05123
640.5000	8.83554
641.0000	8.89106
641.5000	8.75336
642.0000	8.58783
642.5000	8.34011
643.0000	8.29419
643.5000	8.01232
644.0000	7.87698
644.5000	7.64535
645.0000	7.57001
645.5000	7.40098
646.0000	7.28682
646.5000	7.23473
647.0000	7.08433
647.5000	6.99752
648.0000	6.87433
648.5000	6.78113
649.0000	6.70152
649.5000	6.69724
650.0000	6.3808
650.5000	6.30261
651.0000	6.22018
651.5000	6.09784
652.0000	6.00299
652.5000	5.96422
653.0000	5.91219
653.5000	5.71538
654.0000	5.57237
654.5000	5.50664
655.0000	5.40165
655.5000	5.27261
656.0000	5.22864
656.5000	4.99539
657.0000	4.91984
657.5000	4.93055
658.0000	4.95943
658.5000	4.89232
659.0000	4.73611
659.5000	4.60611
660.0000	4.56376
660.5000	4.56928
661.0000	4.35785
661.5000	4.34987
662.0000	4.19808
662.5000	4.129
663.0000	4.11908
663.5000	4.04279
664.0000	3.97399
664.5000	3.95848
665.0000	3.849
665.5000	3.74368
666.0000	3.70262
666.5000	3.61944
667.0000	3.5565
667.5000	3.51371
668.0000	3.47801
668.5000	3.41945
669.0000	3.40792
669.5000	3.28813
670.0000	3.24456
670.5000	3.22444
671.0000	3.17376
671.5000	3.08117
672.0000	2.96354
672.5000	2.9617
673.0000	2.94747
673.5000	2.89527
674.0000	2.84946
674.5000	2.71301
675.0000	2.63189
675.5000	2.65717
676.0000	2.67695
676.5000	2.60759
677.0000	2.55238
677.5000	2.50361
678.0000	2.42925
678.5000	2.36189
679.0000	2.32887
679.5000	2.35398
680.0000	2.31245
680.5000	2.26668
681.0000	2.20063
681.5000	2.2033
682.0000	2.1445
682.5000	2.14431
683.0000	2.09846
683.5000	2.06481
684.0000	1.97198
684.5000	1.96363
685.0000	1.94594
685.5000	2.01574
686.0000	1.91626
686.5000	1.87558
687.0000	1.81792
687.5000	1.80512
688.0000	1.7401
688.5000	1.80159
689.0000	1.74123
689.5000	1.70907
690.0000	1.63003
690.5000	1.62336
691.0000	1.55974
691.5000	1.49727
692.0000	1.50046
692.5000	1.51479
693.0000	1.49855
693.5000	1.48104
694.0000	1.45988
694.5000	1.45309
695.0000	1.42208
695.5000	1.36379
696.0000	1.37224
696.5000	1.38005
697.0000	1.29867
697.5000	1.25951
698.0000	1.23001
698.5000	1.2668
699.0000	1.27719
699.5000	1.18542
700.0000	1.16606

##### Extended Information
[コメント情報]
試料名
コメント
測定者
所属
会社	関西大学

[データ情報]
作成日時	2025/05/07 19:19

データタイプ	等間隔データ
横軸	Wavelength [nm]
縦軸	Int.
スタート	422 nm
エンド	700 nm
データ間隔	0.5 nm
データ数	557     

[測定情報]
機種名	FP-8300
シリアル番号	C037361450
  Ex側フォルダ	なし
  Em側フォルダ	なし

付属品名	SCE-846
付属品シリアルNo.	C037361450

測定日時	2025/05/07 19:19

測定モード	蛍光
励起側バンド幅	5 nm
蛍光側バンド幅	5 nm
レスポンス	0.1 sec
感度	Low
測定範囲	422 - 700 nm
データ取込間隔	0.5 nm
励起波長	422.0 nm
走査速度	500 nm/min
オートゲイン	Off
自動シャッタ制御	測定時のみ開く
光源	キセノンランプ
フィルタ	交換時にスキャンを停止する
ブランク補正	Off

