TITLE	
DATA TYPE	FLUORESCENCE SPECTRUM
ORIGIN	JASCO
OWNER	
DATE	25/05/12
TIME	19:22:17
SPECTROMETER/DATA SYSTEM	
LOCALE	1041
RESOLUTION	
DELTAX	0.5
XUNITS	NANOMETERS
YUNITS	INTENSITY
FIRSTX	  422.0000
LASTX	  700.0000
NPOINTS	     557
FIRSTY	   137.12279
MAXY	  1133.17273
MINY	     1.95564
XYDATA
422.0000	137.123
422.5000	122.18
423.0000	104.142
423.5000	85.4656
424.0000	67.4218
424.5000	50.4518
425.0000	35.4966
425.5000	24.189
426.0000	16.2253
426.5000	10.6296
427.0000	7.22959
427.5000	5.28
428.0000	4.02795
428.5000	3.53727
429.0000	3.38332
429.5000	3.49949
430.0000	3.67146
430.5000	3.8764
431.0000	4.24442
431.5000	4.70045
432.0000	5.2581
432.5000	5.84949
433.0000	6.48871
433.5000	7.27242
434.0000	8.17558
434.5000	9.2622
435.0000	10.7407
435.5000	12.3623
436.0000	14.2061
436.5000	16.3842
437.0000	18.8542
437.5000	21.7622
438.0000	25.2008
438.5000	29.4123
439.0000	34.184
439.5000	39.7787
440.0000	46.0778
440.5000	53.1277
441.0000	61.533
441.5000	71.3102
442.0000	82.4978
442.5000	95.0184
443.0000	109.256
443.5000	124.686
444.0000	143.571
444.5000	165.001
445.0000	188.604
445.5000	215.045
446.0000	244.691
446.5000	277.109
447.0000	314.104
447.5000	354.37
448.0000	397.049
448.5000	442.538
449.0000	491.298
449.5000	542.093
450.0000	595.498
450.5000	649.283
451.0000	703.016
451.5000	755.895
452.0000	807.346
452.5000	857.547
453.0000	904.748
453.5000	948.071
454.0000	987.479
454.5000	1021.87
455.0000	1051.79
455.5000	1077.84
456.0000	1097.58
456.5000	1112.46
457.0000	1125.06
457.5000	1131.49
458.0000	1133.17
458.5000	1132.85
459.0000	1127.2
459.5000	1119.07
460.0000	1107.68
460.5000	1093.87
461.0000	1079.18
461.5000	1061.59
462.0000	1042.39
462.5000	1021.61
463.0000	999.661
463.5000	977.18
464.0000	952.862
464.5000	927.407
465.0000	904.073
465.5000	879.923
466.0000	854.761
466.5000	829.509
467.0000	805.546
467.5000	781.005
468.0000	758.141
468.5000	735.262
469.0000	714.07
469.5000	693.064
470.0000	672.906
470.5000	654.494
471.0000	637.472
471.5000	621.785
472.0000	607.702
472.5000	595.29
473.0000	584.502
473.5000	574.463
474.0000	566.393
474.5000	560.429
475.0000	556.405
475.5000	555.352
476.0000	555.503
476.5000	557.329
477.0000	561.362
477.5000	567.037
478.0000	573.743
478.5000	583.054
479.0000	592.86
479.5000	604.521
480.0000	617.489
480.5000	628.763
481.0000	641.437
481.5000	655.622
482.0000	669.837
482.5000	682.797
483.0000	695.419
483.5000	707.591
484.0000	718.496
484.5000	727.844
485.0000	736.614
485.5000	745.928
486.0000	753.033
486.5000	758.227
487.0000	761.724
487.5000	764.163
488.0000	765.442
488.5000	764.783
489.0000	763.056
489.5000	759.003
490.0000	754.091
490.5000	746.052
491.0000	736.477
491.5000	725.88
492.0000	713.365
492.5000	699.342
493.0000	683.276
493.5000	666.354
494.0000	650.377
494.5000	632.787
495.0000	613.66
495.5000	593.583
496.0000	574.115
496.5000	554.862
497.0000	536.552
497.5000	516.807
498.0000	498.061
498.5000	479.367
499.0000	462.768
499.5000	445.894
500.0000	430.206
500.5000	414.058
501.0000	398.279
501.5000	384.929
502.0000	371.397
502.5000	358.302
503.0000	346.588
503.5000	335.169
504.0000	324.308
504.5000	315.152
505.0000	306.156
505.5000	297.976
506.0000	290.076
506.5000	282.891
507.0000	276.933
507.5000	271.224
508.0000	266.27
508.5000	261.964
509.0000	257.797
509.5000	254.448
510.0000	251.283
510.5000	248.209
511.0000	246.35
511.5000	244.009
512.0000	242.923
512.5000	242.035
513.0000	240.283
513.5000	239.799
514.0000	239.724
514.5000	239.488
515.0000	239.446
515.5000	239.423
516.0000	239.328
516.5000	240.065
517.0000	240.473
517.5000	241.458
518.0000	241.931
518.5000	241.761
519.0000	242.687
519.5000	243.032
520.0000	243.409
520.5000	244.445
521.0000	245.646
521.5000	246.209
522.0000	246.56
522.5000	246.674
523.0000	247.531
523.5000	247.793
524.0000	247.566
524.5000	247.303
525.0000	247.682
525.5000	247.644
526.0000	247.094
526.5000	247.027
527.0000	246.945
527.5000	246.238
528.0000	245.784
528.5000	244.856
529.0000	244.179
529.5000	242.945
530.0000	241.524
530.5000	240.084
531.0000	238.691
531.5000	237.257
532.0000	235.687
532.5000	233.882
533.0000	232.095
533.5000	229.782
534.0000	227.729
534.5000	226.129
535.0000	223.803
535.5000	220.734
536.0000	218.025
536.5000	216.147
537.0000	213.663
537.5000	211.026
538.0000	208.748
538.5000	205.869
539.0000	203.484
539.5000	201.175
540.0000	198.848
540.5000	195.223
541.0000	192.36
541.5000	190.197
542.0000	187.883
542.5000	185.264
543.0000	182.822
543.5000	180.834
544.0000	178.638
544.5000	176.099
545.0000	173.919
545.5000	171.538
546.0000	169.347
546.5000	167.516
547.0000	165.662
547.5000	162.988
548.0000	161.615
548.5000	159.852
549.0000	157.723
549.5000	156.321
550.0000	154.54
550.5000	152.97
551.0000	151.587
551.5000	150.124
552.0000	148.709
552.5000	146.952
553.0000	145.106
553.5000	143.913
554.0000	142.646
554.5000	141.37
555.0000	139.94
555.5000	138.986
556.0000	137.932
556.5000	136.717
557.0000	135.748
557.5000	134.338
558.0000	132.848
558.5000	131.468
559.0000	130.588
559.5000	129.649
560.0000	128.558
560.5000	127.557
561.0000	126.3
561.5000	125.195
562.0000	124.227
562.5000	123.292
563.0000	122.247
563.5000	121.213
564.0000	120.383
564.5000	118.985
565.0000	117.54
565.5000	116.508
566.0000	115.517
566.5000	114.253
567.0000	112.969
567.5000	111.978
568.0000	111.428
568.5000	110.646
569.0000	109.19
569.5000	107.62
570.0000	106.333
570.5000	105.566
571.0000	104.425
571.5000	103.22
572.0000	101.968
572.5000	100.615
573.0000	99.2074
573.5000	98.0684
574.0000	96.8701
574.5000	95.5402
575.0000	94.7528
575.5000	93.6978
576.0000	92.4006
576.5000	91.4213
577.0000	89.8557
577.5000	88.7304
578.0000	88.0101
578.5000	86.6566
579.0000	85.3849
579.5000	84.3339
580.0000	83.1138
580.5000	82.0666
581.0000	80.7847
581.5000	79.6646
582.0000	78.6681
582.5000	77.8349
583.0000	76.6848
583.5000	75.4351
584.0000	74.5317
584.5000	73.367
585.0000	72.4308
585.5000	71.3526
586.0000	70.3801
586.5000	69.6207
587.0000	68.6624
587.5000	67.6766
588.0000	66.8305
588.5000	65.9838
589.0000	64.8582
589.5000	64.1628
590.0000	63.2272
590.5000	62.3957
591.0000	61.3509
591.5000	60.7072
592.0000	59.991
592.5000	59.4184
593.0000	58.3952
593.5000	57.6146
594.0000	56.4554
594.5000	55.6418
595.0000	54.8983
595.5000	54.4247
596.0000	53.8208
596.5000	52.9374
597.0000	52.3201
597.5000	51.5111
598.0000	50.9145
598.5000	50.425
599.0000	49.6873
599.5000	48.8052
600.0000	48.0016
600.5000	47.2504
601.0000	46.7296
601.5000	46.2515
602.0000	45.6407
602.5000	45.034
603.0000	44.5505
603.5000	43.7965
604.0000	43.303
604.5000	42.758
605.0000	42.3417
605.5000	41.6724
606.0000	40.9604
606.5000	40.5279
607.0000	40.1421
607.5000	39.5363
608.0000	38.9258
608.5000	38.5419
609.0000	37.9865
609.5000	37.3662
610.0000	36.8703
610.5000	36.3252
611.0000	35.827
611.5000	35.5135
612.0000	34.9904
612.5000	34.3768
613.0000	33.9513
613.5000	33.6554
614.0000	33.1666
614.5000	32.8039
615.0000	32.3637
615.5000	31.9471
616.0000	31.5098
616.5000	30.9424
617.0000	30.3341
617.5000	29.9043
618.0000	29.4529
618.5000	29.118
619.0000	28.7701
619.5000	28.3405
620.0000	27.8936
620.5000	27.5164
621.0000	27.1484
621.5000	26.7521
622.0000	26.3382
622.5000	26.0331
623.0000	25.6824
623.5000	25.1654
624.0000	24.9435
624.5000	24.595
625.0000	24.0239
625.5000	23.9128
626.0000	23.4946
626.5000	23.1726
627.0000	22.8282
627.5000	22.5077
628.0000	22.0897
628.5000	21.7509
629.0000	21.4744
629.5000	21.1152
630.0000	20.9608
630.5000	20.5965
631.0000	20.3465
631.5000	19.9005
632.0000	19.5191
632.5000	19.306
633.0000	18.9987
633.5000	18.6867
634.0000	18.2974
634.5000	18.0162
635.0000	17.8959
635.5000	17.6613
636.0000	17.4188
636.5000	17.0851
637.0000	16.6742
637.5000	16.401
638.0000	16.314
638.5000	15.9749
639.0000	15.7597
639.5000	15.5244
640.0000	15.3999
640.5000	14.9661
641.0000	14.8469
641.5000	14.6539
642.0000	14.245
642.5000	14.0076
643.0000	13.7641
643.5000	13.6094
644.0000	13.4145
644.5000	13.3298
645.0000	13.0733
645.5000	12.8815
646.0000	12.6849
646.5000	12.4883
647.0000	12.2325
647.5000	12.0579
648.0000	11.8871
648.5000	11.7254
649.0000	11.5675
649.5000	11.2552
650.0000	11.1247
650.5000	11.0232
651.0000	10.8105
651.5000	10.5007
652.0000	10.4773
652.5000	10.309
653.0000	10.165
653.5000	9.97725
654.0000	9.84064
654.5000	9.68043
655.0000	9.35378
655.5000	9.28466
656.0000	9.17695
656.5000	8.95546
657.0000	8.77485
657.5000	8.82197
658.0000	8.69885
658.5000	8.57195
659.0000	8.36581
659.5000	8.2073
660.0000	8.02845
660.5000	7.90222
661.0000	7.75507
661.5000	7.66346
662.0000	7.66078
662.5000	7.44465
663.0000	7.32149
663.5000	7.16732
664.0000	7.14072
664.5000	6.99396
665.0000	6.78914
665.5000	6.70222
666.0000	6.56877
666.5000	6.48691
667.0000	6.34776
667.5000	6.28809
668.0000	6.05689
668.5000	5.99172
669.0000	5.92727
669.5000	5.80567
670.0000	5.70194
670.5000	5.58879
671.0000	5.56499
671.5000	5.4338
672.0000	5.37032
672.5000	5.33377
673.0000	5.14743
673.5000	5.11324
674.0000	5.04651
674.5000	4.97808
675.0000	4.84548
675.5000	4.7863
676.0000	4.73611
676.5000	4.63614
677.0000	4.61112
677.5000	4.49618
678.0000	4.3541
678.5000	4.2784
679.0000	4.24876
679.5000	4.09826
680.0000	4.09548
680.5000	4.04737
681.0000	3.96827
681.5000	3.8622
682.0000	3.77655
682.5000	3.78785
683.0000	3.65712
683.5000	3.66444
684.0000	3.56918
684.5000	3.50939
685.0000	3.45678
685.5000	3.39936
686.0000	3.2905
686.5000	3.24541
687.0000	3.17539
687.5000	3.11902
688.0000	3.08356
688.5000	3.05489
689.0000	2.9468
689.5000	2.91684
690.0000	2.93923
690.5000	2.80007
691.0000	2.81309
691.5000	2.72986
692.0000	2.725
692.5000	2.63588
693.0000	2.59071
693.5000	2.52245
694.0000	2.52198
694.5000	2.46561
695.0000	2.40447
695.5000	2.33034
696.0000	2.38288
696.5000	2.27952
697.0000	2.2309
697.5000	2.16868
698.0000	2.14129
698.5000	2.067
699.0000	1.98825
699.5000	1.95564
700.0000	1.97766

##### Extended Information
[コメント情報]
試料名
コメント
測定者
所属
会社	関西大学

[データ情報]
作成日時	2025/05/12 19:22

データタイプ	等間隔データ
横軸	Wavelength [nm]
縦軸	Int.
スタート	422 nm
エンド	700 nm
データ間隔	0.5 nm
データ数	557     

[測定情報]
機種名	FP-8300
シリアル番号	C037361450
  Ex側フォルダ	なし
  Em側フォルダ	なし

付属品名	SCE-846
付属品シリアルNo.	C037361450

測定日時	2025/05/12 19:22

測定モード	蛍光
励起側バンド幅	5 nm
蛍光側バンド幅	5 nm
レスポンス	0.1 sec
感度	Low
測定範囲	422 - 700 nm
データ取込間隔	0.5 nm
励起波長	422.0 nm
走査速度	500 nm/min
オートゲイン	Off
自動シャッタ制御	測定時のみ開く
光源	キセノンランプ
フィルタ	交換時にスキャンを停止する
ブランク補正	Off

