TITLE	
DATA TYPE	FLUORESCENCE SPECTRUM
ORIGIN	JASCO
OWNER	
DATE	25/04/16
TIME	22:11:37
SPECTROMETER/DATA SYSTEM	
LOCALE	1041
RESOLUTION	
DELTAX	0.5
XUNITS	NANOMETERS
YUNITS	INTENSITY
FIRSTX	  422.0000
LASTX	  700.0000
NPOINTS	     557
FIRSTY	    93.92563
MAXY	  1096.24426
MINY	     2.49012
XYDATA
422.0000	93.9256
422.5000	82.4034
423.0000	69.8339
423.5000	56.8151
424.0000	44.2245
424.5000	32.9485
425.0000	23.4136
425.5000	15.9909
426.0000	10.8869
426.5000	7.52304
427.0000	5.47308
427.5000	4.29434
428.0000	3.63027
428.5000	3.41294
429.0000	3.36531
429.5000	3.47524
430.0000	3.67114
430.5000	3.98035
431.0000	4.34178
431.5000	4.72164
432.0000	5.06468
432.5000	5.47624
433.0000	6.16937
433.5000	6.90472
434.0000	7.69665
434.5000	8.68145
435.0000	9.98792
435.5000	11.4095
436.0000	13.0673
436.5000	15.0118
437.0000	17.3265
437.5000	20.0153
438.0000	23.2162
438.5000	26.9695
439.0000	31.2751
439.5000	36.2584
440.0000	42.2089
440.5000	48.7377
441.0000	56.581
441.5000	65.5481
442.0000	75.4902
442.5000	86.8975
443.0000	100.224
443.5000	115.147
444.0000	131.989
444.5000	151.513
445.0000	173.083
445.5000	197.523
446.0000	225.756
446.5000	256.468
447.0000	291.348
447.5000	329.322
448.0000	370.808
448.5000	414.873
449.0000	462.896
449.5000	513.039
450.0000	565.674
450.5000	619.752
451.0000	673.601
451.5000	725.61
452.0000	776.563
452.5000	828.111
453.0000	875.58
453.5000	919.106
454.0000	958.978
454.5000	993.714
455.0000	1023.65
455.5000	1047.35
456.0000	1067.04
456.5000	1081.72
457.0000	1092.21
457.5000	1096.24
458.0000	1095.41
458.5000	1093.55
459.0000	1087.47
459.5000	1077.95
460.0000	1064.81
460.5000	1050.16
461.0000	1033.53
461.5000	1015.33
462.0000	997.199
462.5000	976.064
463.0000	953.486
463.5000	930.122
464.0000	906.461
464.5000	881.959
465.0000	856.636
465.5000	832.369
466.0000	808.304
466.5000	782.954
467.0000	758.739
467.5000	735.278
468.0000	712.911
468.5000	690.492
469.0000	669.88
469.5000	650.724
470.0000	630.095
470.5000	612.39
471.0000	596.096
471.5000	580.87
472.0000	567.464
472.5000	554.724
473.0000	543.606
473.5000	534.495
474.0000	526.851
474.5000	521.937
475.0000	518.019
475.5000	516.891
476.0000	517.75
476.5000	520.623
477.0000	523.957
477.5000	529.09
478.0000	536.664
478.5000	545.543
479.0000	555.556
479.5000	567.438
480.0000	579.499
480.5000	592.168
481.0000	605.906
481.5000	619.207
482.0000	632.478
482.5000	645.855
483.0000	657.662
483.5000	669.651
484.0000	681.267
484.5000	691.433
485.0000	700.222
485.5000	707.439
486.0000	713.62
486.5000	719.476
487.0000	723.461
487.5000	726.414
488.0000	726.989
488.5000	725.501
489.0000	722.445
489.5000	718.024
490.0000	711.909
490.5000	704.495
491.0000	694.638
491.5000	683.119
492.0000	671.717
492.5000	657.805
493.0000	642.446
493.5000	625.691
494.0000	608.339
494.5000	590.192
495.0000	571.294
495.5000	552.739
496.0000	534.032
496.5000	515.632
497.0000	497.618
497.5000	479.446
498.0000	460.699
498.5000	443.485
499.0000	427.274
499.5000	410.696
500.0000	395.634
500.5000	380.76
501.0000	365.84
501.5000	351.746
502.0000	338.694
502.5000	327.289
503.0000	316.065
503.5000	304.975
504.0000	294.648
504.5000	285.651
505.0000	277.636
505.5000	269.882
506.0000	262.786
506.5000	256.33
507.0000	250.652
507.5000	245.949
508.0000	241.047
508.5000	236.704
509.0000	232.909
509.5000	229.762
510.0000	226.706
510.5000	224.124
511.0000	222.145
511.5000	220.62
512.0000	219.193
512.5000	217.883
513.0000	216.679
513.5000	216.361
514.0000	215.857
514.5000	215.682
515.0000	215.73
515.5000	215.945
516.0000	216.285
516.5000	217.243
517.0000	217.267
517.5000	217.708
518.0000	218.139
518.5000	219.234
519.0000	219.369
519.5000	219.676
520.0000	220.507
520.5000	221.513
521.0000	221.962
521.5000	222.272
522.0000	222.564
522.5000	222.498
523.0000	222.838
523.5000	223.478
524.0000	223.131
524.5000	223.09
525.0000	223.343
525.5000	222.881
526.0000	222.622
526.5000	222.63
527.0000	221.989
527.5000	221.235
528.0000	220.697
528.5000	219.778
529.0000	218.389
529.5000	217.316
530.0000	216.161
530.5000	215.621
531.0000	213.484
531.5000	211.767
532.0000	210.662
532.5000	208.763
533.0000	207.366
533.5000	205.698
534.0000	203.668
534.5000	201.527
535.0000	199.166
535.5000	197.071
536.0000	194.963
536.5000	192.572
537.0000	190.334
537.5000	188.003
538.0000	186.033
538.5000	183.674
539.0000	181.196
539.5000	179.449
540.0000	176.534
540.5000	174.78
541.0000	172.702
541.5000	170.196
542.0000	168.415
542.5000	166.56
543.0000	164.058
543.5000	161.854
544.0000	159.597
544.5000	158.098
545.0000	156.576
545.5000	154.487
546.0000	152.898
546.5000	151.524
547.0000	149.655
547.5000	147.706
548.0000	145.73
548.5000	144.632
549.0000	143.243
549.5000	141.785
550.0000	140.434
550.5000	139.115
551.0000	138.004
551.5000	136.965
552.0000	135.974
552.5000	134.5
553.0000	133.112
553.5000	132.256
554.0000	131.13
554.5000	130.282
555.0000	129.289
555.5000	128.331
556.0000	127.224
556.5000	126.28
557.0000	125.494
557.5000	124.679
558.0000	123.857
558.5000	123.108
559.0000	122.192
559.5000	121.006
560.0000	120.058
560.5000	119.588
561.0000	118.786
561.5000	118.007
562.0000	117.09
562.5000	116.297
563.0000	115.248
563.5000	114.477
564.0000	113.742
564.5000	112.504
565.0000	111.586
565.5000	110.857
566.0000	109.986
566.5000	108.69
567.0000	107.86
567.5000	106.837
568.0000	106.274
568.5000	105.09
569.0000	103.715
569.5000	103.003
570.0000	101.955
570.5000	101.018
571.0000	99.8861
571.5000	99.1118
572.0000	97.7791
572.5000	96.5088
573.0000	95.8935
573.5000	94.8773
574.0000	93.4942
574.5000	92.2258
575.0000	91.5306
575.5000	90.766
576.0000	89.4458
576.5000	88.0703
577.0000	86.9919
577.5000	86.294
578.0000	85.302
578.5000	84.2656
579.0000	82.7655
579.5000	81.7907
580.0000	80.9376
580.5000	80.2186
581.0000	79.2693
581.5000	78.0484
582.0000	77.3045
582.5000	76.1423
583.0000	74.9305
583.5000	73.7771
584.0000	73.0436
584.5000	72.3371
585.0000	71.3749
585.5000	70.2663
586.0000	69.3338
586.5000	68.6213
587.0000	67.6753
587.5000	66.6139
588.0000	65.6216
588.5000	64.8106
589.0000	64.2787
589.5000	63.476
590.0000	62.3141
590.5000	61.4433
591.0000	60.9236
591.5000	60.1382
592.0000	59.3048
592.5000	58.2872
593.0000	57.7421
593.5000	56.9969
594.0000	55.9542
594.5000	55.3809
595.0000	54.8954
595.5000	53.9602
596.0000	53.261
596.5000	52.6493
597.0000	52.1574
597.5000	51.4984
598.0000	50.8014
598.5000	50.3792
599.0000	49.5846
599.5000	48.8551
600.0000	48.2849
600.5000	47.7402
601.0000	47.0638
601.5000	46.2497
602.0000	45.5648
602.5000	45.1426
603.0000	44.4379
603.5000	43.7987
604.0000	43.35
604.5000	43.029
605.0000	42.4153
605.5000	41.6332
606.0000	41.1996
606.5000	40.8742
607.0000	40.3124
607.5000	39.6611
608.0000	39.195
608.5000	38.7361
609.0000	38.2694
609.5000	37.846
610.0000	37.3585
610.5000	36.6747
611.0000	36.15
611.5000	35.7044
612.0000	35.2833
612.5000	35.0055
613.0000	34.5482
613.5000	34.0116
614.0000	33.6445
614.5000	33.2913
615.0000	32.657
615.5000	32.1866
616.0000	31.8783
616.5000	31.3562
617.0000	30.977
617.5000	30.6028
618.0000	30.3065
618.5000	29.8421
619.0000	29.2778
619.5000	28.8194
620.0000	28.4124
620.5000	28.2207
621.0000	27.8939
621.5000	27.5067
622.0000	27.1234
622.5000	26.4836
623.0000	26.1853
623.5000	25.9858
624.0000	25.5792
624.5000	25.1717
625.0000	24.5865
625.5000	24.4814
626.0000	24.1579
626.5000	23.8195
627.0000	23.3616
627.5000	23.1311
628.0000	22.6757
628.5000	22.3161
629.0000	21.9328
629.5000	21.812
630.0000	21.3818
630.5000	21.1951
631.0000	20.6777
631.5000	20.4568
632.0000	20.1954
632.5000	20.0063
633.0000	19.8207
633.5000	19.3349
634.0000	19.0427
634.5000	18.7808
635.0000	18.2199
635.5000	18.0858
636.0000	18.0036
636.5000	17.6745
637.0000	17.467
637.5000	17.2948
638.0000	16.8965
638.5000	16.6868
639.0000	16.5781
639.5000	16.1836
640.0000	15.9837
640.5000	15.9133
641.0000	15.6033
641.5000	15.3538
642.0000	15.0233
642.5000	14.7068
643.0000	14.5237
643.5000	14.3343
644.0000	14.2015
644.5000	13.9836
645.0000	13.7633
645.5000	13.6095
646.0000	13.3675
646.5000	13.0375
647.0000	12.8058
647.5000	12.6197
648.0000	12.4933
648.5000	12.3569
649.0000	11.9606
649.5000	11.8024
650.0000	11.7443
650.5000	11.5349
651.0000	11.5024
651.5000	11.2707
652.0000	11.0105
652.5000	10.9123
653.0000	10.7278
653.5000	10.4918
654.0000	10.3737
654.5000	10.2023
655.0000	10.085
655.5000	10.1115
656.0000	9.88787
656.5000	9.71842
657.0000	9.41049
657.5000	9.19732
658.0000	9.14446
658.5000	9.02627
659.0000	8.827
659.5000	8.70292
660.0000	8.58592
660.5000	8.4804
661.0000	8.37969
661.5000	8.19004
662.0000	8.10009
662.5000	8.04573
663.0000	7.95272
663.5000	7.79703
664.0000	7.54031
664.5000	7.44203
665.0000	7.43684
665.5000	7.28822
666.0000	7.19662
666.5000	7.16256
667.0000	7.07724
667.5000	6.97322
668.0000	6.79463
668.5000	6.64794
669.0000	6.55047
669.5000	6.4446
670.0000	6.29493
670.5000	6.2632
671.0000	6.12641
671.5000	6.04572
672.0000	6.00166
672.5000	5.82225
673.0000	5.7735
673.5000	5.68926
674.0000	5.65043
674.5000	5.5121
675.0000	5.38856
675.5000	5.31317
676.0000	5.18945
676.5000	5.15893
677.0000	5.07696
677.5000	4.97225
678.0000	4.92896
678.5000	4.88568
679.0000	4.7927
679.5000	4.71883
680.0000	4.67605
680.5000	4.59278
681.0000	4.55441
681.5000	4.43078
682.0000	4.40636
682.5000	4.29405
683.0000	4.22307
683.5000	4.20217
684.0000	4.0908
684.5000	4.02129
685.0000	3.92689
685.5000	3.93202
686.0000	3.76717
686.5000	3.73386
687.0000	3.71091
687.5000	3.61635
688.0000	3.55748
688.5000	3.53349
689.0000	3.49599
689.5000	3.4347
690.0000	3.3792
690.5000	3.32218
691.0000	3.28906
691.5000	3.28889
692.0000	3.17884
692.5000	3.11016
693.0000	3.05873
693.5000	3.02803
694.0000	2.95028
694.5000	2.91551
695.0000	2.92846
695.5000	2.91493
696.0000	2.85128
696.5000	2.74853
697.0000	2.68895
697.5000	2.70828
698.0000	2.65373
698.5000	2.59345
699.0000	2.56051
699.5000	2.55957
700.0000	2.49012

##### Extended Information
[コメント情報]
試料名
コメント
測定者
所属
会社	関西大学

[データ情報]
作成日時	2025/04/16 22:11

データタイプ	等間隔データ
横軸	Wavelength [nm]
縦軸	Int.
スタート	422 nm
エンド	700 nm
データ間隔	0.5 nm
データ数	557     

[測定情報]
機種名	FP-8300
シリアル番号	C037361450
  Ex側フォルダ	なし
  Em側フォルダ	なし

付属品名	SCE-846
付属品シリアルNo.	C037361450

測定日時	2025/04/16 22:11

測定モード	蛍光
励起側バンド幅	5 nm
蛍光側バンド幅	5 nm
レスポンス	0.1 sec
感度	Low
測定範囲	422 - 700 nm
データ取込間隔	0.5 nm
励起波長	422.0 nm
走査速度	500 nm/min
オートゲイン	Off
自動シャッタ制御	測定時のみ開く
光源	キセノンランプ
フィルタ	交換時にスキャンを停止する
ブランク補正	Off

