TITLE	
DATA TYPE	FLUORESCENCE SPECTRUM
ORIGIN	JASCO
OWNER	
DATE	25/01/24
TIME	11:35:10
SPECTROMETER/DATA SYSTEM	
LOCALE	1041
RESOLUTION	
DELTAX	0.5
XUNITS	NANOMETERS
YUNITS	INTENSITY
FIRSTX	  422.0000
LASTX	  700.0000
NPOINTS	     557
FIRSTY	   142.19429
MAXY	  1359.85266
MINY	     2.15066
XYDATA
422.0000	142.194
422.5000	124.782
423.0000	104.552
423.5000	83.3325
424.0000	63.3295
424.5000	45.6484
425.0000	31.0838
425.5000	20.3254
426.0000	13.2861
426.5000	8.68842
427.0000	6.12038
427.5000	4.74494
428.0000	4.13732
428.5000	3.91469
429.0000	4.00654
429.5000	4.24197
430.0000	4.48324
430.5000	4.91125
431.0000	5.29948
431.5000	5.69108
432.0000	6.25285
432.5000	6.94929
433.0000	7.77707
433.5000	8.73824
434.0000	9.80904
434.5000	11.1158
435.0000	12.8781
435.5000	14.6565
436.0000	16.826
436.5000	19.5414
437.0000	22.4858
437.5000	26.0022
438.0000	30.27
438.5000	35.1506
439.0000	40.7121
439.5000	47.2245
440.0000	54.8416
440.5000	63.3132
441.0000	72.977
441.5000	84.7478
442.0000	98.133
442.5000	112.453
443.0000	128.809
443.5000	148.13
444.0000	170.242
444.5000	195.102
445.0000	221.998
445.5000	253.118
446.0000	288.363
446.5000	327.029
447.0000	370.916
447.5000	418.096
448.0000	468.519
448.5000	524.225
449.0000	582.589
449.5000	643.959
450.0000	707.752
450.5000	772.256
451.0000	837.884
451.5000	902.106
452.0000	964.885
452.5000	1024.73
453.0000	1082.37
453.5000	1134.13
454.0000	1182.84
454.5000	1226.19
455.0000	1263.97
455.5000	1294.4
456.0000	1317.87
456.5000	1337.1
457.0000	1349.95
457.5000	1357.73
458.0000	1359.85
458.5000	1359.04
459.0000	1353.68
459.5000	1343.2
460.0000	1329
460.5000	1313.78
461.0000	1293.84
461.5000	1272.81
462.0000	1250.06
462.5000	1223.74
463.0000	1197.7
463.5000	1169.65
464.0000	1139.51
464.5000	1110.79
465.0000	1081.37
465.5000	1051.45
466.0000	1021.46
466.5000	991.785
467.0000	961.835
467.5000	933.645
468.0000	905.316
468.5000	877.859
469.0000	852.492
469.5000	827.777
470.0000	804.655
470.5000	782.804
471.0000	762.369
471.5000	743.171
472.0000	727.233
472.5000	712.701
473.0000	699.188
473.5000	688.392
474.0000	679.038
474.5000	671.621
475.0000	668.907
475.5000	666.61
476.0000	666.639
476.5000	669.401
477.0000	674.936
477.5000	682.163
478.0000	690.993
478.5000	701.599
479.0000	715.135
479.5000	729.109
480.0000	743.304
480.5000	759.367
481.0000	776.243
481.5000	793.024
482.0000	810.366
482.5000	825.429
483.0000	839.241
483.5000	855.622
484.0000	869.102
484.5000	881.221
485.0000	892.87
485.5000	902.214
486.0000	909.951
486.5000	915.31
487.0000	920.861
487.5000	923.776
488.0000	924.621
488.5000	923.715
489.0000	920.538
489.5000	914.917
490.0000	906.59
490.5000	897.071
491.0000	886.205
491.5000	872.84
492.0000	856.78
492.5000	837.74
493.0000	818.053
493.5000	797.751
494.0000	777.158
494.5000	753.962
495.0000	731.145
495.5000	707.528
496.0000	683.743
496.5000	660.089
497.0000	636.306
497.5000	613.881
498.0000	590.964
498.5000	568.899
499.0000	547.017
499.5000	526.886
500.0000	507.222
500.5000	487.523
501.0000	469.342
501.5000	452.631
502.0000	435.646
502.5000	420.574
503.0000	405.813
503.5000	391.824
504.0000	379.896
504.5000	368.34
505.0000	358.1
505.5000	347.524
506.0000	338.264
506.5000	330.876
507.0000	323.082
507.5000	316.411
508.0000	309.895
508.5000	303.763
509.0000	298.744
509.5000	294.665
510.0000	290.501
510.5000	287.651
511.0000	284.633
511.5000	281.935
512.0000	279.844
512.5000	277.791
513.0000	276.794
513.5000	275.865
514.0000	275.717
514.5000	275.39
515.0000	274.354
515.5000	274.539
516.0000	275.13
516.5000	275.812
517.0000	275.904
517.5000	275.797
518.0000	276.094
518.5000	276.957
519.0000	277.509
519.5000	277.914
520.0000	277.96
520.5000	278.661
521.0000	279.715
521.5000	280.004
522.0000	280.821
522.5000	280.283
523.0000	279.643
523.5000	279.846
524.0000	280.415
524.5000	279.709
525.0000	279.409
525.5000	279.046
526.0000	278.449
526.5000	277.692
527.0000	277.083
527.5000	275.991
528.0000	275.058
528.5000	273.411
529.0000	271.547
529.5000	269.421
530.0000	268.624
530.5000	266.363
531.0000	264.59
531.5000	262.321
532.0000	259.738
532.5000	257.237
533.0000	254.763
533.5000	252.345
534.0000	249.72
534.5000	246.771
535.0000	244.082
535.5000	241.095
536.0000	237.255
536.5000	234.05
537.0000	231.324
537.5000	227.691
538.0000	224.402
538.5000	221.488
539.0000	219.038
539.5000	215.441
540.0000	212.762
540.5000	208.158
541.0000	205.063
541.5000	202.081
542.0000	199.237
542.5000	196.402
543.0000	193.317
543.5000	190.515
544.0000	187.524
544.5000	184.563
545.0000	182.409
545.5000	179.889
546.0000	177.399
546.5000	175.301
547.0000	172.909
547.5000	170.503
548.0000	168.088
548.5000	165.845
549.0000	163.708
549.5000	162.317
550.0000	160.474
550.5000	158.411
551.0000	156.681
551.5000	155.094
552.0000	153.239
552.5000	151.648
553.0000	149.932
553.5000	148.602
554.0000	147.043
554.5000	145.24
555.0000	143.738
555.5000	142.554
556.0000	140.83
556.5000	139.854
557.0000	139.26
557.5000	137.915
558.0000	136.484
558.5000	135.072
559.0000	133.905
559.5000	132.353
560.0000	131.345
560.5000	130.321
561.0000	129.784
561.5000	128.814
562.0000	127.391
562.5000	126.268
563.0000	124.846
563.5000	123.761
564.0000	122.783
564.5000	121.43
565.0000	120
565.5000	118.79
566.0000	117.789
566.5000	116.526
567.0000	115.051
567.5000	114.251
568.0000	112.725
568.5000	111.477
569.0000	110.207
569.5000	109.074
570.0000	107.984
570.5000	107.023
571.0000	105.703
571.5000	104.107
572.0000	102.72
572.5000	101.34
573.0000	100.329
573.5000	99.0287
574.0000	97.9001
574.5000	96.5835
575.0000	95.1181
575.5000	93.7614
576.0000	92.7052
576.5000	91.2448
577.0000	90.2186
577.5000	88.9317
578.0000	87.8216
578.5000	86.424
579.0000	85.0978
579.5000	83.9482
580.0000	82.4466
580.5000	81.1288
581.0000	80.2142
581.5000	79.1823
582.0000	77.5785
582.5000	76.5296
583.0000	75.6438
583.5000	74.3382
584.0000	73.2484
584.5000	72.4878
585.0000	71.3489
585.5000	70.3477
586.0000	69.1675
586.5000	68.4277
587.0000	67.4774
587.5000	66.1149
588.0000	65.0506
588.5000	64.4999
589.0000	63.2824
589.5000	62.6397
590.0000	61.4985
590.5000	60.4712
591.0000	59.5204
591.5000	58.8615
592.0000	57.893
592.5000	57.0856
593.0000	56.3182
593.5000	55.4952
594.0000	54.3045
594.5000	53.6272
595.0000	52.9774
595.5000	52.2409
596.0000	51.3754
596.5000	50.5833
597.0000	49.8081
597.5000	49.1606
598.0000	48.4332
598.5000	47.847
599.0000	47.1159
599.5000	46.3538
600.0000	45.9414
600.5000	45.5241
601.0000	44.7622
601.5000	44.0489
602.0000	43.4294
602.5000	42.76
603.0000	42.3751
603.5000	41.6612
604.0000	40.9939
604.5000	40.3714
605.0000	39.8818
605.5000	39.5903
606.0000	38.997
606.5000	38.4158
607.0000	37.5794
607.5000	37.2732
608.0000	36.8713
608.5000	36.206
609.0000	35.5541
609.5000	35.096
610.0000	34.8707
610.5000	34.4105
611.0000	33.7503
611.5000	33.286
612.0000	32.7454
612.5000	32.3894
613.0000	31.9752
613.5000	31.492
614.0000	30.9863
614.5000	30.4716
615.0000	30.2618
615.5000	29.7735
616.0000	29.245
616.5000	28.8657
617.0000	28.3938
617.5000	27.9976
618.0000	27.534
618.5000	27.357
619.0000	26.9647
619.5000	26.6461
620.0000	26.0776
620.5000	25.5481
621.0000	25.2797
621.5000	24.8112
622.0000	24.5783
622.5000	24.289
623.0000	23.932
623.5000	23.6006
624.0000	23.0236
624.5000	22.6054
625.0000	22.3981
625.5000	22.0663
626.0000	21.5696
626.5000	21.199
627.0000	21.0678
627.5000	20.86
628.0000	20.4998
628.5000	20.2321
629.0000	19.9393
629.5000	19.5533
630.0000	19.3217
630.5000	19.0415
631.0000	18.532
631.5000	18.1933
632.0000	18.0735
632.5000	17.8028
633.0000	17.5808
633.5000	17.1085
634.0000	16.7978
634.5000	16.7672
635.0000	16.5223
635.5000	16.2119
636.0000	15.9355
636.5000	15.7506
637.0000	15.4927
637.5000	15.2757
638.0000	15.0126
638.5000	14.7937
639.0000	14.4417
639.5000	14.2261
640.0000	14.1593
640.5000	13.8994
641.0000	13.6599
641.5000	13.4105
642.0000	13.2992
642.5000	12.9823
643.0000	12.7471
643.5000	12.5943
644.0000	12.3597
644.5000	12.1541
645.0000	12.0469
645.5000	11.7947
646.0000	11.5961
646.5000	11.5102
647.0000	11.2987
647.5000	11.179
648.0000	10.9469
648.5000	10.8074
649.0000	10.6328
649.5000	10.4765
650.0000	10.1766
650.5000	9.96494
651.0000	9.87636
651.5000	9.79257
652.0000	9.63392
652.5000	9.44609
653.0000	9.37738
653.5000	9.19986
654.0000	9.05796
654.5000	8.86829
655.0000	8.70147
655.5000	8.52482
656.0000	8.43217
656.5000	8.18708
657.0000	8.03178
657.5000	8.06491
658.0000	7.87065
658.5000	7.83166
659.0000	7.79023
659.5000	7.56639
660.0000	7.34973
660.5000	7.36604
661.0000	7.27738
661.5000	7.18626
662.0000	6.94225
662.5000	6.88741
663.0000	6.67833
663.5000	6.53171
664.0000	6.46854
664.5000	6.34395
665.0000	6.27897
665.5000	6.19229
666.0000	6.05102
666.5000	6.03844
667.0000	5.92178
667.5000	5.81006
668.0000	5.75045
668.5000	5.73466
669.0000	5.5412
669.5000	5.39548
670.0000	5.3863
670.5000	5.31778
671.0000	5.23496
671.5000	5.08039
672.0000	4.98105
672.5000	4.98504
673.0000	4.84046
673.5000	4.78021
674.0000	4.72484
674.5000	4.62559
675.0000	4.64124
675.5000	4.60685
676.0000	4.49898
676.5000	4.33882
677.0000	4.30499
677.5000	4.15752
678.0000	4.16323
678.5000	4.10594
679.0000	4.09289
679.5000	4.03068
680.0000	3.92258
680.5000	3.79453
681.0000	3.78408
681.5000	3.83615
682.0000	3.69713
682.5000	3.65506
683.0000	3.57762
683.5000	3.44706
684.0000	3.33859
684.5000	3.41445
685.0000	3.37974
685.5000	3.31148
686.0000	3.25088
686.5000	3.22833
687.0000	3.14891
687.5000	3.08696
688.0000	2.94752
688.5000	2.94588
689.0000	3.01305
689.5000	2.89174
690.0000	2.77071
690.5000	2.73663
691.0000	2.73733
691.5000	2.7502
692.0000	2.66797
692.5000	2.66657
693.0000	2.67406
693.5000	2.62052
694.0000	2.55031
694.5000	2.47249
695.0000	2.46886
695.5000	2.43024
696.0000	2.39837
696.5000	2.28462
697.0000	2.31593
697.5000	2.29923
698.0000	2.27094
698.5000	2.22259
699.0000	2.15066
699.5000	2.15419
700.0000	2.16325

##### Extended Information
[コメント情報]
試料名
コメント
測定者
所属
会社	関西大学

[データ情報]
作成日時	2025/01/24 11:35

データタイプ	等間隔データ
横軸	Wavelength [nm]
縦軸	Int.
スタート	422 nm
エンド	700 nm
データ間隔	0.5 nm
データ数	557     

[測定情報]
機種名	FP-8300
シリアル番号	C037361450
  Ex側フォルダ	なし
  Em側フォルダ	なし

付属品名	SCE-846
付属品シリアルNo.	C037361450

測定日時	2025/01/24 11:35

測定モード	蛍光
励起側バンド幅	5 nm
蛍光側バンド幅	5 nm
レスポンス	0.1 sec
感度	Low
測定範囲	422 - 700 nm
データ取込間隔	0.5 nm
励起波長	422.0 nm
走査速度	500 nm/min
オートゲイン	Off
自動シャッタ制御	測定時のみ開く
光源	キセノンランプ
フィルタ	交換時にスキャンを停止する
ブランク補正	Off

