TITLE	
DATA TYPE	FLUORESCENCE SPECTRUM
ORIGIN	JASCO
OWNER	
DATE	25/02/25
TIME	12:46:44
SPECTROMETER/DATA SYSTEM	
LOCALE	1041
RESOLUTION	
DELTAX	0.5
XUNITS	NANOMETERS
YUNITS	INTENSITY
FIRSTX	  422.0000
LASTX	  700.0000
NPOINTS	     557
FIRSTY	    27.43746
MAXY	  1402.79041
MINY	     3.21756
XYDATA
422.0000	27.4375
422.5000	24.2375
423.0000	20.5584
423.5000	16.8777
424.0000	13.4093
424.5000	10.3427
425.0000	7.79725
425.5000	5.97149
426.0000	4.74552
426.5000	3.89675
427.0000	3.48043
427.5000	3.25399
428.0000	3.21756
428.5000	3.32748
429.0000	3.5483
429.5000	3.8312
430.0000	4.09148
430.5000	4.38805
431.0000	4.77069
431.5000	5.3358
432.0000	5.91538
432.5000	6.53462
433.0000	7.34479
433.5000	8.23264
434.0000	9.24231
434.5000	10.5105
435.0000	12.0443
435.5000	13.8788
436.0000	16.1306
436.5000	18.5322
437.0000	21.2452
437.5000	24.7355
438.0000	28.8055
438.5000	33.4741
439.0000	38.8755
439.5000	44.9702
440.0000	51.9018
440.5000	60.4506
441.0000	70.1955
441.5000	81.1578
442.0000	93.5689
442.5000	107.974
443.0000	123.98
443.5000	141.799
444.0000	163.437
444.5000	187.262
445.0000	213.55
445.5000	243.509
446.0000	276.913
446.5000	314.415
447.0000	356.297
447.5000	402.525
448.0000	451.897
448.5000	504.445
449.0000	560.132
449.5000	620.235
450.0000	682.929
450.5000	744.364
451.0000	808.279
451.5000	871.838
452.0000	934.921
452.5000	996.131
453.0000	1055.24
453.5000	1110.14
454.0000	1160.67
454.5000	1207.43
455.0000	1251.14
455.5000	1289.03
456.0000	1320.23
456.5000	1344.96
457.0000	1365.26
457.5000	1381.06
458.0000	1391.85
458.5000	1399.28
459.0000	1402.79
459.5000	1401.61
460.0000	1396.56
460.5000	1388.82
461.0000	1376.64
461.5000	1362.3
462.0000	1346.17
462.5000	1327.68
463.0000	1307.41
463.5000	1285.55
464.0000	1261.54
464.5000	1236.65
465.0000	1210.58
465.5000	1183.44
466.0000	1156.85
466.5000	1130.12
467.0000	1104.57
467.5000	1077.7
468.0000	1049.85
468.5000	1023.62
469.0000	999.077
469.5000	974.809
470.0000	952.942
470.5000	931.439
471.0000	911.651
471.5000	892.354
472.0000	873.697
472.5000	857.856
473.0000	844.624
473.5000	832.847
474.0000	823.278
474.5000	815.078
475.0000	809.205
475.5000	806.511
476.0000	805.631
476.5000	807.61
477.0000	811.583
477.5000	816.781
478.0000	823.912
478.5000	834.009
479.0000	844.611
479.5000	857.659
480.0000	872.219
480.5000	888.547
481.0000	905.061
481.5000	920.251
482.0000	936.958
482.5000	954.453
483.0000	971.792
483.5000	987.758
484.0000	1003.75
484.5000	1018.64
485.0000	1030.49
485.5000	1042.85
486.0000	1054.65
486.5000	1065.14
487.0000	1072.52
487.5000	1079.21
488.0000	1083.35
488.5000	1086.73
489.0000	1089.01
489.5000	1087.24
490.0000	1083.38
490.5000	1077.38
491.0000	1067.73
491.5000	1057.59
492.0000	1044.73
492.5000	1030.23
493.0000	1012.79
493.5000	993.708
494.0000	974.001
494.5000	952.389
495.0000	929.727
495.5000	905.503
496.0000	882.284
496.5000	860.146
497.0000	836.7
497.5000	813.435
498.0000	790.15
498.5000	767.162
499.0000	744.564
499.5000	723.517
500.0000	703.26
500.5000	682.625
501.0000	663.162
501.5000	644.89
502.0000	627.974
502.5000	611.195
503.0000	595.604
503.5000	581.219
504.0000	568.389
504.5000	555.584
505.0000	544.038
505.5000	533.856
506.0000	524.478
506.5000	515.624
507.0000	507.409
507.5000	500.545
508.0000	494.867
508.5000	489.261
509.0000	483.927
509.5000	479.537
510.0000	476.595
510.5000	474.591
511.0000	471.719
511.5000	469.313
512.0000	468.174
512.5000	466.61
513.0000	466.03
513.5000	467.462
514.0000	466.853
514.5000	466.507
515.0000	466.309
515.5000	467.98
516.0000	469.372
516.5000	471.156
517.0000	472.596
517.5000	473.449
518.0000	474.906
518.5000	476.628
519.0000	477.952
519.5000	479.747
520.0000	481.206
520.5000	484.125
521.0000	485.949
521.5000	487.905
522.0000	489.106
522.5000	490.81
523.0000	493.074
523.5000	494.743
524.0000	495.977
524.5000	497.999
525.0000	500.183
525.5000	500.84
526.0000	501.555
526.5000	501.969
527.0000	502.87
527.5000	504.395
528.0000	504.916
528.5000	505.718
529.0000	506.141
529.5000	506.176
530.0000	505.318
530.5000	505.091
531.0000	504.339
531.5000	502.803
532.0000	501.891
532.5000	500.464
533.0000	498.606
533.5000	496.88
534.0000	494.518
534.5000	491.948
535.0000	490.184
535.5000	488.683
536.0000	485.164
536.5000	482.048
537.0000	479.005
537.5000	475.621
538.0000	472.52
538.5000	468.589
539.0000	465.074
539.5000	461.946
540.0000	458.709
540.5000	453.032
541.0000	449.358
541.5000	445.626
542.0000	442.257
542.5000	438.244
543.0000	434.748
543.5000	430.659
544.0000	426.75
544.5000	423.573
545.0000	420.357
545.5000	416.662
546.0000	412.361
546.5000	408.593
547.0000	404.961
547.5000	401.35
548.0000	397.844
548.5000	393.975
549.0000	391.05
549.5000	387.741
550.0000	384.248
550.5000	381.426
551.0000	377.473
551.5000	374.409
552.0000	370.823
552.5000	367.699
553.0000	365.716
553.5000	362.634
554.0000	359.494
554.5000	356.446
555.0000	353.634
555.5000	350.241
556.0000	346.648
556.5000	344.776
557.0000	341.285
557.5000	338.396
558.0000	335.972
558.5000	332.599
559.0000	330.021
559.5000	327.708
560.0000	324.692
560.5000	321.799
561.0000	318.898
561.5000	316.08
562.0000	313.25
562.5000	310.793
563.0000	308.311
563.5000	305.646
564.0000	302.359
564.5000	299.695
565.0000	296.84
565.5000	294.396
566.0000	292.064
566.5000	288.792
567.0000	286.052
567.5000	283.375
568.0000	280.277
568.5000	278.599
569.0000	275.262
569.5000	271.957
570.0000	268.93
570.5000	266.131
571.0000	263.754
571.5000	261.081
572.0000	258.641
572.5000	255.948
573.0000	253.008
573.5000	249.619
574.0000	246.636
574.5000	244.445
575.0000	241.488
575.5000	238.931
576.0000	236.37
576.5000	233.789
577.0000	231.184
577.5000	228.944
578.0000	226.035
578.5000	222.703
579.0000	220.016
579.5000	217.504
580.0000	214.901
580.5000	211.915
581.0000	209.265
581.5000	207.442
582.0000	204.259
582.5000	201.155
583.0000	199.13
583.5000	197.137
584.0000	194.613
584.5000	192.122
585.0000	189.867
585.5000	187.618
586.0000	184.792
586.5000	182.559
587.0000	180.655
587.5000	178.389
588.0000	176.048
588.5000	173.747
589.0000	171.343
589.5000	169.33
590.0000	166.934
590.5000	165.087
591.0000	162.988
591.5000	160.892
592.0000	158.482
592.5000	156.618
593.0000	154.526
593.5000	152.785
594.0000	150.843
594.5000	148.433
595.0000	146.284
595.5000	144.62
596.0000	142.769
596.5000	140.899
597.0000	139.427
597.5000	137.241
598.0000	135.396
598.5000	134.139
599.0000	132.662
599.5000	130.493
600.0000	128.654
600.5000	127.135
601.0000	125.457
601.5000	123.899
602.0000	122.331
602.5000	120.422
603.0000	119.322
603.5000	117.533
604.0000	116.39
604.5000	114.578
605.0000	112.944
605.5000	111.332
606.0000	110.159
606.5000	108.753
607.0000	107.423
607.5000	105.679
608.0000	104.264
608.5000	102.514
609.0000	101.131
609.5000	100.181
610.0000	98.9182
610.5000	97.6193
611.0000	95.9755
611.5000	95.1004
612.0000	93.6154
612.5000	92.4118
613.0000	91.17
613.5000	89.9206
614.0000	88.4717
614.5000	87.2749
615.0000	86.138
615.5000	84.9224
616.0000	83.6738
616.5000	82.4705
617.0000	81.5165
617.5000	79.9533
618.0000	79.1475
618.5000	77.6974
619.0000	76.8008
619.5000	75.8079
620.0000	74.6414
620.5000	73.3278
621.0000	72.5263
621.5000	71.3501
622.0000	70.3889
622.5000	69.5813
623.0000	68.41
623.5000	67.6615
624.0000	66.4676
624.5000	65.191
625.0000	64.3659
625.5000	63.8591
626.0000	62.8683
626.5000	61.5748
627.0000	60.6419
627.5000	59.9117
628.0000	58.8532
628.5000	57.9457
629.0000	57.3716
629.5000	56.5908
630.0000	55.6406
630.5000	54.773
631.0000	54.0832
631.5000	52.8636
632.0000	52.4231
632.5000	51.7394
633.0000	50.7218
633.5000	49.9982
634.0000	49.3565
634.5000	48.7891
635.0000	47.9504
635.5000	47.137
636.0000	46.268
636.5000	45.8122
637.0000	45.1219
637.5000	44.1482
638.0000	43.5504
638.5000	42.8077
639.0000	42.2298
639.5000	41.4181
640.0000	40.7687
640.5000	40.1417
641.0000	39.6433
641.5000	39.0349
642.0000	38.4018
642.5000	37.9126
643.0000	37.4165
643.5000	36.6072
644.0000	36.0876
644.5000	35.6733
645.0000	35.116
645.5000	34.5367
646.0000	33.8224
646.5000	33.4028
647.0000	32.9123
647.5000	32.4037
648.0000	32.0034
648.5000	31.423
649.0000	31.1268
649.5000	30.4867
650.0000	29.9682
650.5000	29.3255
651.0000	28.8819
651.5000	28.3745
652.0000	28.1093
652.5000	27.6443
653.0000	27.2973
653.5000	26.7949
654.0000	26.3679
654.5000	26.0523
655.0000	25.7224
655.5000	25.1586
656.0000	24.7736
656.5000	24.3099
657.0000	23.8433
657.5000	23.4643
658.0000	23.121
658.5000	22.838
659.0000	22.457
659.5000	21.9907
660.0000	21.7019
660.5000	21.4981
661.0000	21.0821
661.5000	20.6078
662.0000	20.3458
662.5000	19.8979
663.0000	19.5162
663.5000	19.3802
664.0000	19.0954
664.5000	18.8209
665.0000	18.5487
665.5000	18.286
666.0000	17.9627
666.5000	17.6667
667.0000	17.3379
667.5000	17.1877
668.0000	16.8762
668.5000	16.4775
669.0000	16.2004
669.5000	15.9831
670.0000	15.6097
670.5000	15.3846
671.0000	15.3135
671.5000	15.0246
672.0000	14.6323
672.5000	14.3679
673.0000	14.0914
673.5000	13.9029
674.0000	13.6867
674.5000	13.4387
675.0000	13.2399
675.5000	13.0006
676.0000	12.9488
676.5000	12.6989
677.0000	12.3626
677.5000	12.2333
678.0000	11.9456
678.5000	11.7349
679.0000	11.6674
679.5000	11.5518
680.0000	11.4153
680.5000	11.1206
681.0000	10.8309
681.5000	10.66
682.0000	10.6107
682.5000	10.4418
683.0000	10.1442
683.5000	9.9041
684.0000	9.82041
684.5000	9.66311
685.0000	9.51311
685.5000	9.24542
686.0000	9.11869
686.5000	9.03112
687.0000	8.92677
687.5000	8.69588
688.0000	8.59931
688.5000	8.52909
689.0000	8.36912
689.5000	8.23358
690.0000	8.07522
690.5000	7.89194
691.0000	7.84989
691.5000	7.75657
692.0000	7.51473
692.5000	7.44256
693.0000	7.36845
693.5000	7.23624
694.0000	7.04993
694.5000	6.96029
695.0000	6.8672
695.5000	6.69936
696.0000	6.64606
696.5000	6.5103
697.0000	6.35106
697.5000	6.30182
698.0000	6.28551
698.5000	6.15594
699.0000	6.08049
699.5000	5.93122
700.0000	5.76408

##### Extended Information
[コメント情報]
試料名
コメント
測定者
所属
会社	関西大学

[データ情報]
作成日時	2025/02/25 12:46

データタイプ	等間隔データ
横軸	Wavelength [nm]
縦軸	Int.
スタート	422 nm
エンド	700 nm
データ間隔	0.5 nm
データ数	557     

[測定情報]
機種名	FP-8300
シリアル番号	C037361450
  Ex側フォルダ	なし
  Em側フォルダ	なし

付属品名	SCE-846
付属品シリアルNo.	C037361450

測定日時	2025/02/25 12:46

測定モード	蛍光
励起側バンド幅	5 nm
蛍光側バンド幅	5 nm
レスポンス	0.1 sec
感度	Low
測定範囲	422 - 700 nm
データ取込間隔	0.5 nm
励起波長	422.0 nm
走査速度	500 nm/min
オートゲイン	Off
自動シャッタ制御	測定時のみ開く
光源	キセノンランプ
フィルタ	交換時にスキャンを停止する
ブランク補正	Off

