TITLE	
DATA TYPE	FLUORESCENCE SPECTRUM
ORIGIN	JASCO
OWNER	
DATE	25/05/07
TIME	19:47:59
SPECTROMETER/DATA SYSTEM	
LOCALE	1041
RESOLUTION	
DELTAX	0.5
XUNITS	NANOMETERS
YUNITS	INTENSITY
FIRSTX	  422.0000
LASTX	  700.0000
NPOINTS	     557
FIRSTY	   554.46759
MAXY	  1573.87781
MINY	     1.20615
XYDATA
422.0000	554.468
422.5000	483.495
423.0000	404.623
423.5000	323.362
424.0000	246.872
424.5000	178.614
425.0000	122.856
425.5000	80.913
426.0000	51.6164
426.5000	31.4374
427.0000	19.5687
427.5000	12.6046
428.0000	8.45455
428.5000	6.75648
429.0000	6.21012
429.5000	6.08015
430.0000	6.18566
430.5000	6.47998
431.0000	6.88982
431.5000	7.29269
432.0000	7.90925
432.5000	8.52138
433.0000	9.38027
433.5000	10.4367
434.0000	11.4914
434.5000	12.8872
435.0000	14.4306
435.5000	16.2013
436.0000	18.5314
436.5000	21.1271
437.0000	24.385
437.5000	28.1834
438.0000	32.3761
438.5000	37.341
439.0000	43.2602
439.5000	50.4504
440.0000	58.404
440.5000	67.4466
441.0000	77.8905
441.5000	90.1219
442.0000	104.379
442.5000	120.112
443.0000	137.887
443.5000	158.34
444.0000	182.465
444.5000	209.773
445.0000	240.353
445.5000	274.498
446.0000	312.88
446.5000	356.085
447.0000	405.935
447.5000	459.368
448.0000	517.136
448.5000	579.289
449.0000	646.886
449.5000	719.232
450.0000	795.128
450.5000	872.015
451.0000	949.25
451.5000	1027.76
452.0000	1103.93
452.5000	1178.42
453.0000	1248.61
453.5000	1314.06
454.0000	1371.48
454.5000	1422.98
455.0000	1467.17
455.5000	1502.81
456.0000	1531.26
456.5000	1551.75
457.0000	1567.07
457.5000	1573.83
458.0000	1573.88
458.5000	1568.34
459.0000	1557.5
459.5000	1544.83
460.0000	1527.11
460.5000	1504.25
461.0000	1479.81
461.5000	1452.68
462.0000	1424.31
462.5000	1392.53
463.0000	1359.61
463.5000	1326.63
464.0000	1291.89
464.5000	1255.96
465.0000	1220.37
465.5000	1183.27
466.0000	1145.78
466.5000	1110.61
467.0000	1077.07
467.5000	1043.65
468.0000	1010.7
468.5000	977.362
469.0000	946.313
469.5000	915.837
470.0000	888.73
470.5000	862.788
471.0000	838.153
471.5000	815.857
472.0000	795.064
472.5000	775.721
473.0000	760.5
473.5000	746.661
474.0000	735.023
474.5000	726.551
475.0000	720.651
475.5000	717.065
476.0000	715.811
476.5000	717.933
477.0000	722.898
477.5000	730.799
478.0000	740.122
478.5000	752.826
479.0000	766.813
479.5000	782.596
480.0000	801.316
480.5000	820.068
481.0000	839.518
481.5000	860.17
482.0000	880.78
482.5000	899.851
483.0000	918.385
483.5000	935.037
484.0000	951.478
484.5000	967.833
485.0000	980.844
485.5000	993.498
486.0000	1003.44
486.5000	1011.86
487.0000	1018.63
487.5000	1022.8
488.0000	1025.15
488.5000	1024.47
489.0000	1021.1
489.5000	1014.89
490.0000	1005.54
490.5000	995.317
491.0000	982.785
491.5000	967.622
492.0000	950.386
492.5000	930.418
493.0000	907.983
493.5000	884.272
494.0000	858.559
494.5000	832.728
495.0000	806.824
495.5000	779.409
496.0000	752.827
496.5000	725.642
497.0000	697.931
497.5000	672.612
498.0000	646.085
498.5000	619.93
499.0000	596.047
499.5000	572.534
500.0000	549.469
500.5000	528.984
501.0000	509.12
501.5000	489.156
502.0000	469.964
502.5000	451.738
503.0000	435.619
503.5000	419.803
504.0000	404.534
504.5000	391.255
505.0000	379.338
505.5000	367.322
506.0000	356.062
506.5000	346.725
507.0000	337.707
507.5000	330.176
508.0000	323.086
508.5000	316.821
509.0000	310.048
509.5000	305.363
510.0000	300.688
510.5000	296.597
511.0000	291.865
511.5000	289.421
512.0000	287.771
512.5000	285.377
513.0000	283.411
513.5000	281.861
514.0000	281.116
514.5000	280.285
515.0000	280.232
515.5000	279.934
516.0000	279.821
516.5000	280.535
517.0000	280.302
517.5000	281.124
518.0000	281.799
518.5000	282.019
519.0000	282.692
519.5000	283.585
520.0000	283.879
520.5000	283.7
521.0000	283.941
521.5000	284.081
522.0000	284.225
522.5000	284.804
523.0000	284.731
523.5000	284.526
524.0000	284.731
524.5000	284.166
525.0000	283.73
525.5000	282.709
526.0000	282.116
526.5000	280.91
527.0000	279.752
527.5000	277.798
528.0000	276.887
528.5000	275.136
529.0000	272.043
529.5000	270.06
530.0000	267.882
530.5000	265.763
531.0000	263.36
531.5000	260.59
532.0000	256.833
532.5000	253.369
533.0000	250.601
533.5000	248.033
534.0000	243.903
534.5000	240.143
535.0000	236.29
535.5000	232.161
536.0000	228.893
536.5000	225.43
537.0000	221.489
537.5000	217.639
538.0000	214.339
538.5000	209.811
539.0000	206.434
539.5000	202.775
540.0000	198.694
540.5000	194.537
541.0000	191.223
541.5000	187.717
542.0000	184.188
542.5000	180.722
543.0000	177.454
543.5000	173.618
544.0000	170.096
544.5000	167.394
545.0000	164.751
545.5000	161.691
546.0000	158.656
546.5000	155.983
547.0000	153.178
547.5000	150.511
548.0000	147.964
548.5000	145.32
549.0000	142.863
549.5000	140.655
550.0000	138.8
550.5000	137.193
551.0000	135.129
551.5000	132.981
552.0000	130.974
552.5000	129.114
553.0000	127.522
553.5000	125.948
554.0000	124.317
554.5000	122.925
555.0000	121.427
555.5000	119.959
556.0000	118.863
556.5000	117.897
557.0000	115.994
557.5000	114.833
558.0000	114.014
558.5000	112.658
559.0000	111.235
559.5000	110.293
560.0000	108.803
560.5000	107.703
561.0000	106.464
561.5000	105.718
562.0000	104.321
562.5000	103.52
563.0000	102.367
563.5000	101.154
564.0000	100.044
564.5000	99.0444
565.0000	97.9555
565.5000	96.5623
566.0000	95.4552
566.5000	94.4175
567.0000	93.3716
567.5000	92.2535
568.0000	91.0585
568.5000	89.8395
569.0000	88.5207
569.5000	87.5592
570.0000	86.3908
570.5000	85.1368
571.0000	84.0056
571.5000	82.732
572.0000	81.5429
572.5000	80.3242
573.0000	79.1136
573.5000	77.6996
574.0000	76.7386
574.5000	75.6503
575.0000	74.3398
575.5000	73.1942
576.0000	72.0696
576.5000	70.8866
577.0000	69.6088
577.5000	68.2724
578.0000	66.9201
578.5000	65.6943
579.0000	64.7773
579.5000	63.6443
580.0000	62.5031
580.5000	61.5132
581.0000	60.0456
581.5000	59.2644
582.0000	57.9423
582.5000	57.0566
583.0000	55.9392
583.5000	55.1777
584.0000	53.9336
584.5000	52.9518
585.0000	52.0961
585.5000	51.0778
586.0000	49.8273
586.5000	49.0874
587.0000	48.1593
587.5000	47.3515
588.0000	46.4838
588.5000	45.5989
589.0000	44.7941
589.5000	44.0015
590.0000	43.0242
590.5000	42.4037
591.0000	41.5292
591.5000	40.6092
592.0000	40.1895
592.5000	39.3012
593.0000	38.4166
593.5000	38.1822
594.0000	37.4137
594.5000	36.6483
595.0000	36.0735
595.5000	35.4952
596.0000	34.8007
596.5000	34.2773
597.0000	33.6773
597.5000	33.1921
598.0000	32.6028
598.5000	32.0116
599.0000	31.3163
599.5000	30.8466
600.0000	30.2698
600.5000	29.7679
601.0000	29.3067
601.5000	29.0303
602.0000	28.5445
602.5000	28.0725
603.0000	27.548
603.5000	27.1375
604.0000	26.8002
604.5000	26.2213
605.0000	25.9405
605.5000	25.6784
606.0000	25.1259
606.5000	24.6514
607.0000	24.3428
607.5000	23.8919
608.0000	23.6022
608.5000	23.2488
609.0000	22.8213
609.5000	22.5332
610.0000	22.1572
610.5000	21.8399
611.0000	21.5388
611.5000	21.1287
612.0000	20.8255
612.5000	20.4952
613.0000	20.2169
613.5000	19.8365
614.0000	19.4191
614.5000	19.114
615.0000	18.9365
615.5000	18.7604
616.0000	18.2722
616.5000	18.1054
617.0000	17.7696
617.5000	17.3943
618.0000	17.1247
618.5000	16.8767
619.0000	16.6248
619.5000	16.2493
620.0000	16.2355
620.5000	15.8519
621.0000	15.6888
621.5000	15.3614
622.0000	15.0927
622.5000	14.7791
623.0000	14.5934
623.5000	14.2643
624.0000	14.15
624.5000	13.9228
625.0000	13.5432
625.5000	13.4721
626.0000	13.1157
626.5000	12.8741
627.0000	12.7362
627.5000	12.4628
628.0000	12.2059
628.5000	11.9884
629.0000	11.8808
629.5000	11.7799
630.0000	11.5089
630.5000	11.2422
631.0000	11.0068
631.5000	10.8777
632.0000	10.6962
632.5000	10.428
633.0000	10.2
633.5000	10.113
634.0000	9.95856
634.5000	9.78433
635.0000	9.61536
635.5000	9.38111
636.0000	9.32904
636.5000	9.23276
637.0000	8.98091
637.5000	8.93231
638.0000	8.65212
638.5000	8.52513
639.0000	8.40298
639.5000	8.2676
640.0000	8.09416
640.5000	7.96728
641.0000	7.83496
641.5000	7.70525
642.0000	7.52894
642.5000	7.33284
643.0000	7.29358
643.5000	7.27659
644.0000	7.15713
644.5000	6.99197
645.0000	6.84517
645.5000	6.65498
646.0000	6.55485
646.5000	6.43018
647.0000	6.3303
647.5000	6.26158
648.0000	6.17718
648.5000	6.07273
649.0000	5.93993
649.5000	5.84457
650.0000	5.77649
650.5000	5.65811
651.0000	5.53174
651.5000	5.4531
652.0000	5.39162
652.5000	5.26469
653.0000	5.10987
653.5000	5.07943
654.0000	5.06091
654.5000	4.93196
655.0000	4.84322
655.5000	4.83803
656.0000	4.68792
656.5000	4.5464
657.0000	4.47356
657.5000	4.48127
658.0000	4.47567
658.5000	4.37522
659.0000	4.23784
659.5000	4.13907
660.0000	4.09624
660.5000	4.02589
661.0000	3.94545
661.5000	3.92185
662.0000	3.80149
662.5000	3.73068
663.0000	3.73672
663.5000	3.62938
664.0000	3.61428
664.5000	3.57352
665.0000	3.49571
665.5000	3.47395
666.0000	3.39758
666.5000	3.27898
667.0000	3.26197
667.5000	3.20227
668.0000	3.09883
668.5000	3.05868
669.0000	3.04035
669.5000	3.01201
670.0000	2.94234
670.5000	2.85643
671.0000	2.85217
671.5000	2.80213
672.0000	2.7297
672.5000	2.72578
673.0000	2.67936
673.5000	2.61879
674.0000	2.61748
674.5000	2.54089
675.0000	2.5307
675.5000	2.52773
676.0000	2.45297
676.5000	2.36899
677.0000	2.36931
677.5000	2.30232
678.0000	2.27683
678.5000	2.26123
679.0000	2.15771
679.5000	2.11449
680.0000	2.1271
680.5000	2.09169
681.0000	2.04435
681.5000	1.99737
682.0000	2.02979
682.5000	2.0404
683.0000	1.93005
683.5000	1.92975
684.0000	1.94327
684.5000	1.86701
685.0000	1.80192
685.5000	1.73861
686.0000	1.73942
686.5000	1.72783
687.0000	1.68575
687.5000	1.72241
688.0000	1.68558
688.5000	1.6165
689.0000	1.60131
689.5000	1.56379
690.0000	1.53036
690.5000	1.51421
691.0000	1.47478
691.5000	1.48383
692.0000	1.45709
692.5000	1.42618
693.0000	1.44762
693.5000	1.43589
694.0000	1.3755
694.5000	1.37616
695.0000	1.36424
695.5000	1.30715
696.0000	1.31103
696.5000	1.28694
697.0000	1.29042
697.5000	1.22485
698.0000	1.20615
698.5000	1.24185
699.0000	1.22732
699.5000	1.21203
700.0000	1.23396

##### Extended Information
[コメント情報]
試料名
コメント
測定者
所属
会社	関西大学

[データ情報]
作成日時	2025/05/07 19:47

データタイプ	等間隔データ
横軸	Wavelength [nm]
縦軸	Int.
スタート	422 nm
エンド	700 nm
データ間隔	0.5 nm
データ数	557     

[測定情報]
機種名	FP-8300
シリアル番号	C037361450
  Ex側フォルダ	なし
  Em側フォルダ	なし

付属品名	SCE-846
付属品シリアルNo.	C037361450

測定日時	2025/05/07 19:47

測定モード	蛍光
励起側バンド幅	5 nm
蛍光側バンド幅	5 nm
レスポンス	0.1 sec
感度	Low
測定範囲	422 - 700 nm
データ取込間隔	0.5 nm
励起波長	422.0 nm
走査速度	500 nm/min
オートゲイン	Off
自動シャッタ制御	測定時のみ開く
光源	キセノンランプ
フィルタ	交換時にスキャンを停止する
ブランク補正	Off

