TITLE	
DATA TYPE	FLUORESCENCE SPECTRUM
ORIGIN	JASCO
OWNER	
DATE	25/04/27
TIME	21:26:48
SPECTROMETER/DATA SYSTEM	
LOCALE	1041
RESOLUTION	
DELTAX	0.5
XUNITS	NANOMETERS
YUNITS	INTENSITY
FIRSTX	  422.0000
LASTX	  700.0000
NPOINTS	     557
FIRSTY	   928.95172
MAXY	  1586.98157
MINY	     0.78545
XYDATA
422.0000	928.952
422.5000	816.831
423.0000	687.604
423.5000	554.27
424.0000	427.866
424.5000	312.805
425.0000	217.119
425.5000	144.175
426.0000	92.0501
426.5000	55.2602
427.0000	33.426
427.5000	20.3842
428.0000	12.5353
428.5000	9.01202
429.0000	7.64674
429.5000	7.04523
430.0000	6.98967
430.5000	7.1715
431.0000	7.4489
431.5000	7.95498
432.0000	8.49112
432.5000	9.04685
433.0000	9.80316
433.5000	10.7555
434.0000	11.8783
434.5000	13.3738
435.0000	14.793
435.5000	16.5346
436.0000	18.8776
436.5000	21.6354
437.0000	24.8505
437.5000	28.5109
438.0000	32.831
438.5000	37.9954
439.0000	43.7794
439.5000	50.7747
440.0000	58.7396
440.5000	67.8707
441.0000	78.5335
441.5000	90.8607
442.0000	105.052
442.5000	121.262
443.0000	139.454
443.5000	159.725
444.0000	184.026
444.5000	211.608
445.0000	241.393
445.5000	276.364
446.0000	316.18
446.5000	359.649
447.0000	409.722
447.5000	464.948
448.0000	524.254
448.5000	587.079
449.0000	656.523
449.5000	730.982
450.0000	808.651
450.5000	887.664
451.0000	967.122
451.5000	1048.15
452.0000	1124.59
452.5000	1199.92
453.0000	1272.03
453.5000	1336.52
454.0000	1395.44
454.5000	1445.64
455.0000	1488.69
455.5000	1525.37
456.0000	1553.14
456.5000	1571.29
457.0000	1582.29
457.5000	1586.98
458.0000	1585.28
458.5000	1577.7
459.0000	1565.69
459.5000	1548.12
460.0000	1528.17
460.5000	1504.04
461.0000	1476.97
461.5000	1448
462.0000	1416.16
462.5000	1383.35
463.0000	1348.74
463.5000	1312.53
464.0000	1275.5
464.5000	1237.89
465.0000	1200.47
465.5000	1163.32
466.0000	1127.38
466.5000	1090.22
467.0000	1053.14
467.5000	1016.48
468.0000	983.305
468.5000	951.734
469.0000	919.698
469.5000	889.48
470.0000	860.2
470.5000	833.66
471.0000	809.209
471.5000	785.975
472.0000	764.964
472.5000	747.25
473.0000	731.555
473.5000	716.745
474.0000	704.204
474.5000	696.792
475.0000	691.531
475.5000	688.362
476.0000	688.285
476.5000	690.446
477.0000	696.672
477.5000	704.775
478.0000	714.753
478.5000	727.492
479.0000	743.903
479.5000	761.421
480.0000	780.069
480.5000	798.757
481.0000	819.401
481.5000	840.877
482.0000	862.565
482.5000	883.148
483.0000	903.69
483.5000	921.854
484.0000	938.694
484.5000	955.303
485.0000	969.476
485.5000	981.232
486.0000	992.038
486.5000	1000.46
487.0000	1006.86
487.5000	1010.72
488.0000	1012.47
488.5000	1011.6
489.0000	1009.43
489.5000	1003.61
490.0000	995.247
490.5000	984.877
491.0000	969.785
491.5000	953.47
492.0000	935.668
492.5000	914.414
493.0000	891.663
493.5000	869.167
494.0000	842.748
494.5000	816.808
495.0000	791.711
495.5000	763.576
496.0000	735.802
496.5000	708.251
497.0000	680.93
497.5000	655.29
498.0000	628.903
498.5000	603.931
499.0000	579.228
499.5000	554.94
500.0000	533.287
500.5000	511.659
501.0000	490.349
501.5000	470.841
502.0000	451.553
502.5000	434.186
503.0000	417.896
503.5000	402.404
504.0000	387.855
504.5000	373.671
505.0000	361.289
505.5000	350.757
506.0000	339.532
506.5000	328.841
507.0000	321.168
507.5000	312.891
508.0000	305.618
508.5000	299.506
509.0000	294.035
509.5000	288.775
510.0000	284.33
510.5000	280.691
511.0000	277.07
511.5000	273.99
512.0000	271.783
512.5000	270.195
513.0000	269.035
513.5000	268.309
514.0000	267.822
514.5000	267.222
515.0000	266.807
515.5000	267.622
516.0000	268.101
516.5000	268.171
517.0000	268.896
517.5000	269.837
518.0000	270.935
518.5000	271.605
519.0000	272.366
519.5000	273.381
520.0000	274.307
520.5000	275.25
521.0000	276.542
521.5000	276.67
522.0000	276.567
522.5000	276.893
523.0000	277.639
523.5000	277.797
524.0000	277.535
524.5000	277.183
525.0000	276.958
525.5000	276.092
526.0000	275.227
526.5000	273.884
527.0000	272.724
527.5000	271.863
528.0000	270.465
528.5000	268.637
529.0000	265.532
529.5000	263.074
530.0000	261.017
530.5000	258.643
531.0000	255.851
531.5000	252.445
532.0000	249.099
532.5000	245.991
533.0000	243.019
533.5000	239.351
534.0000	235.435
534.5000	231.58
535.0000	227.587
535.5000	223.723
536.0000	219.846
536.5000	215.818
537.0000	211.294
537.5000	206.902
538.0000	202.611
538.5000	198.675
539.0000	194.491
539.5000	190.453
540.0000	186.881
540.5000	182.933
541.0000	179.058
541.5000	174.84
542.0000	171.401
542.5000	167.572
543.0000	163.973
543.5000	160.359
544.0000	156.937
544.5000	153.588
545.0000	150.504
545.5000	147.416
546.0000	144.214
546.5000	141.137
547.0000	138.616
547.5000	136.242
548.0000	133.506
548.5000	131.245
549.0000	128.889
549.5000	126.805
550.0000	124.037
550.5000	122.057
551.0000	120.305
551.5000	118.224
552.0000	116.146
552.5000	114.527
553.0000	113.018
553.5000	111.089
554.0000	109.905
554.5000	108.277
555.0000	107.092
555.5000	105.985
556.0000	104.779
556.5000	103.197
557.0000	101.571
557.5000	100.311
558.0000	99.2323
558.5000	97.8915
559.0000	97.1284
559.5000	96.0459
560.0000	95.1338
560.5000	93.8728
561.0000	92.4636
561.5000	91.8039
562.0000	90.8559
562.5000	89.9132
563.0000	88.9786
563.5000	87.5398
564.0000	86.4201
564.5000	85.472
565.0000	84.5119
565.5000	83.5199
566.0000	82.4441
566.5000	81.2901
567.0000	80.3961
567.5000	79.0325
568.0000	77.8656
568.5000	77.0658
569.0000	76.2803
569.5000	74.8091
570.0000	73.6601
570.5000	72.3581
571.0000	71.2896
571.5000	70.3003
572.0000	69.3294
572.5000	68.227
573.0000	66.9353
573.5000	65.8312
574.0000	64.6411
574.5000	63.6692
575.0000	62.1979
575.5000	61.1404
576.0000	59.8517
576.5000	58.8307
577.0000	57.9097
577.5000	56.7691
578.0000	55.5572
578.5000	54.5313
579.0000	53.5037
579.5000	52.5447
580.0000	51.3917
580.5000	50.3262
581.0000	49.4191
581.5000	48.3861
582.0000	47.3728
582.5000	46.461
583.0000	45.5005
583.5000	44.5921
584.0000	43.6123
584.5000	42.8761
585.0000	42.1677
585.5000	41.1922
586.0000	40.5322
586.5000	39.6147
587.0000	38.6152
587.5000	37.7347
588.0000	37.1992
588.5000	36.5074
589.0000	35.6486
589.5000	34.9408
590.0000	34.2239
590.5000	33.6383
591.0000	33.0397
591.5000	32.2639
592.0000	31.6818
592.5000	31.035
593.0000	30.349
593.5000	29.7364
594.0000	29.0713
594.5000	28.832
595.0000	28.1373
595.5000	27.7104
596.0000	27.0754
596.5000	26.7351
597.0000	26.1544
597.5000	25.6774
598.0000	25.2763
598.5000	24.8213
599.0000	24.2737
599.5000	23.9071
600.0000	23.5022
600.5000	23.0875
601.0000	22.6883
601.5000	22.362
602.0000	21.7722
602.5000	21.4861
603.0000	21.302
603.5000	20.8217
604.0000	20.5003
604.5000	20.0409
605.0000	19.7234
605.5000	19.4369
606.0000	19.1465
606.5000	18.902
607.0000	18.6779
607.5000	18.2829
608.0000	17.9903
608.5000	17.6351
609.0000	17.3869
609.5000	17.2544
610.0000	16.8128
610.5000	16.481
611.0000	16.2149
611.5000	16.0284
612.0000	15.6793
612.5000	15.3472
613.0000	15.2203
613.5000	15.0547
614.0000	14.8256
614.5000	14.4733
615.0000	14.2772
615.5000	14.1168
616.0000	13.8537
616.5000	13.6577
617.0000	13.3605
617.5000	13.1785
618.0000	12.8476
618.5000	12.5743
619.0000	12.5448
619.5000	12.3149
620.0000	12.0858
620.5000	11.8954
621.0000	11.7763
621.5000	11.5391
622.0000	11.2966
622.5000	10.9999
623.0000	10.8634
623.5000	10.6824
624.0000	10.4767
624.5000	10.3073
625.0000	10.2012
625.5000	10.0136
626.0000	9.8028
626.5000	9.62701
627.0000	9.46642
627.5000	9.29427
628.0000	9.02699
628.5000	8.85371
629.0000	8.67229
629.5000	8.5982
630.0000	8.5059
630.5000	8.34512
631.0000	8.20892
631.5000	8.0262
632.0000	7.87729
632.5000	7.72274
633.0000	7.65159
633.5000	7.44473
634.0000	7.26439
634.5000	7.16736
635.0000	7.05166
635.5000	7.06073
636.0000	6.91519
636.5000	6.63514
637.0000	6.5969
637.5000	6.43166
638.0000	6.2852
638.5000	6.29817
639.0000	6.19097
639.5000	5.958
640.0000	5.85226
640.5000	5.76496
641.0000	5.65046
641.5000	5.56309
642.0000	5.46982
642.5000	5.3713
643.0000	5.31569
643.5000	5.10775
644.0000	5.0877
644.5000	4.99237
645.0000	4.85673
645.5000	4.82829
646.0000	4.74572
646.5000	4.60544
647.0000	4.52334
647.5000	4.49513
648.0000	4.48793
648.5000	4.35034
649.0000	4.30103
649.5000	4.23995
650.0000	4.11462
650.5000	4.02967
651.0000	3.90358
651.5000	3.87701
652.0000	3.88604
652.5000	3.71605
653.0000	3.66672
653.5000	3.70592
654.0000	3.66288
654.5000	3.50424
655.0000	3.47706
655.5000	3.42382
656.0000	3.40166
656.5000	3.37176
657.0000	3.27239
657.5000	3.15756
658.0000	3.06932
658.5000	3.08945
659.0000	2.97567
659.5000	2.94636
660.0000	2.92344
660.5000	2.90917
661.0000	2.86641
661.5000	2.78302
662.0000	2.73023
662.5000	2.70325
663.0000	2.67679
663.5000	2.64695
664.0000	2.55587
664.5000	2.48653
665.0000	2.41815
665.5000	2.37173
666.0000	2.3661
666.5000	2.31533
667.0000	2.28989
667.5000	2.24491
668.0000	2.25521
668.5000	2.20409
669.0000	2.10076
669.5000	2.11148
670.0000	2.0939
670.5000	2.03364
671.0000	2.0166
671.5000	1.99121
672.0000	1.93475
672.5000	1.92091
673.0000	1.88502
673.5000	1.82209
674.0000	1.76116
674.5000	1.80381
675.0000	1.74065
675.5000	1.70142
676.0000	1.73912
676.5000	1.70186
677.0000	1.65173
677.5000	1.61861
678.0000	1.5837
678.5000	1.58569
679.0000	1.52712
679.5000	1.50549
680.0000	1.51555
680.5000	1.43027
681.0000	1.39915
681.5000	1.41429
682.0000	1.36835
682.5000	1.35385
683.0000	1.29294
683.5000	1.25271
684.0000	1.2529
684.5000	1.23541
685.0000	1.22589
685.5000	1.18915
686.0000	1.23813
686.5000	1.24612
687.0000	1.21023
687.5000	1.12378
688.0000	1.16719
688.5000	1.10815
689.0000	1.08037
689.5000	1.07254
690.0000	1.06711
690.5000	1.03587
691.0000	1.03407
691.5000	1.0447
692.0000	0.970334
692.5000	0.961481
693.0000	0.96386
693.5000	0.950279
694.0000	0.952294
694.5000	0.901721
695.0000	0.898925
695.5000	0.905768
696.0000	0.908847
696.5000	0.907892
697.0000	0.858013
697.5000	0.862884
698.0000	0.83844
698.5000	0.824936
699.0000	0.844371
699.5000	0.833476
700.0000	0.785446

##### Extended Information
[コメント情報]
試料名
コメント
測定者
所属
会社	関西大学

[データ情報]
作成日時	2025/04/27 21:26

データタイプ	等間隔データ
横軸	Wavelength [nm]
縦軸	Int.
スタート	422 nm
エンド	700 nm
データ間隔	0.5 nm
データ数	557     

[測定情報]
機種名	FP-8300
シリアル番号	C037361450
  Ex側フォルダ	なし
  Em側フォルダ	なし

付属品名	SCE-846
付属品シリアルNo.	C037361450

測定日時	2025/04/27 21:26

測定モード	蛍光
励起側バンド幅	5 nm
蛍光側バンド幅	5 nm
レスポンス	0.1 sec
感度	Low
測定範囲	422 - 700 nm
データ取込間隔	0.5 nm
励起波長	422.0 nm
走査速度	500 nm/min
オートゲイン	Off
自動シャッタ制御	測定時のみ開く
光源	キセノンランプ
フィルタ	交換時にスキャンを停止する
ブランク補正	Off

