TITLE	
DATA TYPE	FLUORESCENCE SPECTRUM
ORIGIN	JASCO
OWNER	
DATE	25/04/14
TIME	16:02:33
SPECTROMETER/DATA SYSTEM	
LOCALE	1041
RESOLUTION	
DELTAX	0.5
XUNITS	NANOMETERS
YUNITS	INTENSITY
FIRSTX	  422.0000
LASTX	  700.0000
NPOINTS	     557
FIRSTY	   159.07047
MAXY	  2674.02881
MINY	     3.22137
XYDATA
422.0000	159.07
422.5000	143.768
423.0000	125.115
423.5000	104.517
424.0000	84.1587
424.5000	64.7188
425.0000	47.6843
425.5000	33.6267
426.0000	23.579
426.5000	16.3234
427.0000	11.832
427.5000	9.025
428.0000	7.35901
428.5000	6.83388
429.0000	6.80801
429.5000	7.20618
430.0000	7.65647
430.5000	8.31851
431.0000	8.99246
431.5000	9.88523
432.0000	10.8185
432.5000	11.9335
433.0000	13.3149
433.5000	15.0911
434.0000	17.0217
434.5000	19.3239
435.0000	21.8354
435.5000	24.8309
436.0000	28.9559
436.5000	33.5616
437.0000	38.8554
437.5000	44.9452
438.0000	52.1046
438.5000	60.4639
439.0000	70.6986
439.5000	82.411
440.0000	95.547
440.5000	110.615
441.0000	128.317
441.5000	149.173
442.0000	172.478
442.5000	198.79
443.0000	229.087
443.5000	263.273
444.0000	303.339
444.5000	348.186
445.0000	398.303
445.5000	455.084
446.0000	519.294
446.5000	591.569
447.0000	672.025
447.5000	760.144
448.0000	854.629
448.5000	957.074
449.0000	1068.66
449.5000	1187.85
450.0000	1312.18
450.5000	1435.39
451.0000	1561.99
451.5000	1689.34
452.0000	1816.47
452.5000	1941.07
453.0000	2057.6
453.5000	2165.58
454.0000	2266.56
454.5000	2357.17
455.0000	2437.45
455.5000	2504.2
456.0000	2559.18
456.5000	2602.68
457.0000	2636.5
457.5000	2657.66
458.0000	2670.3
458.5000	2674.03
459.0000	2669.95
459.5000	2652.85
460.0000	2632.73
460.5000	2610.21
461.0000	2579.77
461.5000	2543.22
462.0000	2501.05
462.5000	2454.86
463.0000	2406.22
463.5000	2354.35
464.0000	2301.79
464.5000	2246.51
465.0000	2191.36
465.5000	2133.23
466.0000	2073.64
466.5000	2018.22
467.0000	1962.33
467.5000	1904.8
468.0000	1849.92
468.5000	1796.89
469.0000	1745
469.5000	1694.78
470.0000	1646.52
470.5000	1602.38
471.0000	1560.27
471.5000	1518.84
472.0000	1484.49
472.5000	1453.97
473.0000	1423.82
473.5000	1399.6
474.0000	1378.61
474.5000	1362.38
475.0000	1350.69
475.5000	1344.26
476.0000	1342
476.5000	1342.77
477.0000	1348.48
477.5000	1359.54
478.0000	1373.68
478.5000	1393.75
479.0000	1418.62
479.5000	1443.49
480.0000	1471.04
480.5000	1500.04
481.0000	1532.51
481.5000	1565.02
482.0000	1600.13
482.5000	1634.6
483.0000	1666.01
483.5000	1697.67
484.0000	1726.5
484.5000	1753.77
485.0000	1778.07
485.5000	1801.5
486.0000	1821.2
486.5000	1836.2
487.0000	1849.36
487.5000	1861.67
488.0000	1867.18
488.5000	1869.53
489.0000	1866.04
489.5000	1859.08
490.0000	1848.94
490.5000	1835.31
491.0000	1815.21
491.5000	1790.6
492.0000	1761.51
492.5000	1728.39
493.0000	1692.7
493.5000	1653.31
494.0000	1612.44
494.5000	1570.23
495.0000	1526.23
495.5000	1478.79
496.0000	1431.76
496.5000	1385.94
497.0000	1339.96
497.5000	1294.8
498.0000	1248.43
498.5000	1204.47
499.0000	1163.46
499.5000	1122.94
500.0000	1081.52
500.5000	1042.8
501.0000	1005.99
501.5000	972.239
502.0000	938.948
502.5000	906.385
503.0000	874.879
503.5000	846.669
504.0000	821.867
504.5000	797.859
505.0000	774.874
505.5000	753.828
506.0000	733.927
506.5000	716.345
507.0000	700.39
507.5000	684.544
508.0000	671.125
508.5000	659.252
509.0000	648.878
509.5000	638.942
510.0000	630.205
510.5000	622.583
511.0000	616.064
511.5000	609.791
512.0000	605.034
512.5000	602.153
513.0000	598.983
513.5000	595.766
514.0000	594.215
514.5000	591.669
515.0000	591.896
515.5000	592.114
516.0000	592.251
516.5000	591.62
517.0000	591.875
517.5000	592.472
518.0000	593.529
518.5000	595.3
519.0000	596.003
519.5000	597.302
520.0000	597.912
520.5000	598.78
521.0000	600.164
521.5000	601.105
522.0000	601.903
522.5000	602.507
523.0000	602.286
523.5000	603.337
524.0000	603.23
524.5000	603.106
525.0000	604.045
525.5000	603.301
526.0000	602.099
526.5000	600.485
527.0000	599.411
527.5000	597.549
528.0000	595.237
528.5000	591.697
529.0000	588.788
529.5000	586.543
530.0000	584.13
530.5000	578.587
531.0000	573.694
531.5000	569.647
532.0000	565.162
532.5000	559.385
533.0000	553.063
533.5000	546.426
534.0000	541.095
534.5000	534.56
535.0000	528.152
535.5000	521.437
536.0000	514.951
536.5000	508.133
537.0000	501.491
537.5000	493.794
538.0000	485.672
538.5000	478.997
539.0000	471.134
539.5000	463.974
540.0000	457.006
540.5000	446.634
541.0000	439.146
541.5000	432.931
542.0000	426.027
542.5000	417.493
543.0000	411.159
543.5000	404.705
544.0000	398.512
544.5000	392.116
545.0000	385.86
545.5000	379.216
546.0000	373.043
546.5000	367.324
547.0000	361.578
547.5000	356.104
548.0000	351.222
548.5000	345.529
549.0000	340.208
549.5000	335.789
550.0000	331.212
550.5000	326.178
551.0000	321.527
551.5000	317.685
552.0000	313.782
552.5000	309.298
553.0000	305.189
553.5000	301.655
554.0000	297.612
554.5000	294.088
555.0000	290.413
555.5000	286.552
556.0000	283.599
556.5000	280.36
557.0000	277.295
557.5000	274.41
558.0000	270.709
558.5000	268.099
559.0000	264.666
559.5000	261.756
560.0000	259.446
560.5000	256.905
561.0000	254.446
561.5000	251.04
562.0000	248.279
562.5000	245.448
563.0000	242.994
563.5000	241.112
564.0000	238.143
564.5000	235.241
565.0000	232.217
565.5000	229.91
566.0000	227.298
566.5000	224.361
567.0000	222.164
567.5000	219.299
568.0000	216.719
568.5000	214.044
569.0000	211.038
569.5000	208.175
570.0000	206.236
570.5000	203.309
571.0000	200.077
571.5000	197.953
572.0000	194.955
572.5000	192.006
573.0000	189.858
573.5000	187.22
574.0000	184.691
574.5000	181.883
575.0000	178.63
575.5000	176.605
576.0000	174.009
576.5000	171.599
577.0000	169.001
577.5000	166.712
578.0000	164.137
578.5000	161.443
579.0000	158.531
579.5000	156.393
580.0000	153.807
580.5000	151.29
581.0000	148.828
581.5000	146.831
582.0000	144.192
582.5000	141.457
583.0000	140.093
583.5000	137.888
584.0000	135.466
584.5000	132.994
585.0000	130.592
585.5000	128.801
586.0000	126.717
586.5000	124.672
587.0000	122.537
587.5000	120.594
588.0000	118.44
588.5000	116.882
589.0000	114.845
589.5000	112.576
590.0000	110.865
590.5000	109.188
591.0000	107.41
591.5000	105.467
592.0000	103.957
592.5000	102.105
593.0000	100.019
593.5000	98.4203
594.0000	97.1874
594.5000	95.8429
595.0000	94.4591
595.5000	93.3588
596.0000	91.7875
596.5000	89.8778
597.0000	88.0735
597.5000	86.9736
598.0000	85.8782
598.5000	84.2514
599.0000	82.6292
599.5000	81.7046
600.0000	80.7248
600.5000	79.1746
601.0000	78.0757
601.5000	77.0922
602.0000	75.8047
602.5000	74.8422
603.0000	73.6639
603.5000	72.4644
604.0000	71.4584
604.5000	70.3263
605.0000	69.1658
605.5000	68.2882
606.0000	67.1105
606.5000	66.3002
607.0000	65.4332
607.5000	64.4666
608.0000	63.4754
608.5000	62.4071
609.0000	61.2328
609.5000	60.3836
610.0000	59.5138
610.5000	58.6956
611.0000	58.0227
611.5000	56.8542
612.0000	55.9891
612.5000	55.2214
613.0000	54.5435
613.5000	53.6003
614.0000	52.8605
614.5000	51.9327
615.0000	51.2429
615.5000	50.5895
616.0000	49.768
616.5000	48.9536
617.0000	48.3185
617.5000	47.4245
618.0000	46.5859
618.5000	46.2053
619.0000	45.4957
619.5000	44.8546
620.0000	44.3041
620.5000	43.3538
621.0000	42.893
621.5000	42.04
622.0000	41.101
622.5000	40.8065
623.0000	40.1747
623.5000	39.6318
624.0000	39.0513
624.5000	38.157
625.0000	37.2882
625.5000	36.983
626.0000	36.5859
626.5000	35.9755
627.0000	35.4078
627.5000	34.7635
628.0000	34.2571
628.5000	33.639
629.0000	32.9674
629.5000	32.3855
630.0000	31.9438
630.5000	31.6493
631.0000	31.0141
631.5000	30.5285
632.0000	30.2154
632.5000	29.5818
633.0000	28.8936
633.5000	28.5282
634.0000	28.1661
634.5000	27.8162
635.0000	27.321
635.5000	26.9884
636.0000	26.395
636.5000	25.8351
637.0000	25.501
637.5000	25.1753
638.0000	24.7325
638.5000	24.274
639.0000	23.752
639.5000	23.3896
640.0000	23.016
640.5000	22.7074
641.0000	22.3953
641.5000	21.9788
642.0000	21.5977
642.5000	21.1835
643.0000	20.6595
643.5000	20.5401
644.0000	20.1794
644.5000	19.8365
645.0000	19.4359
645.5000	19.0193
646.0000	18.9328
646.5000	18.5009
647.0000	18.2545
647.5000	18.0066
648.0000	17.6672
648.5000	17.3022
649.0000	17.0686
649.5000	16.8019
650.0000	16.5825
650.5000	16.3744
651.0000	16.0844
651.5000	15.8421
652.0000	15.5994
652.5000	15.3239
653.0000	15.0323
653.5000	14.6469
654.0000	14.4358
654.5000	14.3053
655.0000	13.9625
655.5000	13.7775
656.0000	13.6117
656.5000	13.4895
657.0000	13.1494
657.5000	12.9029
658.0000	12.7505
658.5000	12.483
659.0000	12.3852
659.5000	12.2062
660.0000	11.9142
660.5000	11.7362
661.0000	11.5132
661.5000	11.3044
662.0000	11.1858
662.5000	10.9964
663.0000	10.8571
663.5000	10.5349
664.0000	10.3954
664.5000	10.2396
665.0000	10.1899
665.5000	10.1187
666.0000	9.87508
666.5000	9.71525
667.0000	9.49294
667.5000	9.31759
668.0000	9.13267
668.5000	8.95629
669.0000	8.77146
669.5000	8.66697
670.0000	8.58152
670.5000	8.44822
671.0000	8.32425
671.5000	8.18096
672.0000	8.00301
672.5000	7.89551
673.0000	7.87468
673.5000	7.74985
674.0000	7.5818
674.5000	7.34689
675.0000	7.27274
675.5000	7.23043
676.0000	7.02522
676.5000	7.00088
677.0000	6.87687
677.5000	6.74694
678.0000	6.6912
678.5000	6.4523
679.0000	6.33257
679.5000	6.33534
680.0000	6.1862
680.5000	6.10723
681.0000	6.02986
681.5000	5.92796
682.0000	5.82164
682.5000	5.7734
683.0000	5.68957
683.5000	5.59054
684.0000	5.44637
684.5000	5.2848
685.0000	5.20251
685.5000	5.19083
686.0000	5.08762
686.5000	5.05502
687.0000	4.97613
687.5000	4.82742
688.0000	4.72928
688.5000	4.70765
689.0000	4.62797
689.5000	4.54498
690.0000	4.47695
690.5000	4.32106
691.0000	4.31149
691.5000	4.20876
692.0000	4.1366
692.5000	4.07198
693.0000	4.04384
693.5000	3.96809
694.0000	3.96874
694.5000	3.81133
695.0000	3.70906
695.5000	3.74225
696.0000	3.68879
696.5000	3.63556
697.0000	3.53002
697.5000	3.47832
698.0000	3.47079
698.5000	3.41947
699.0000	3.37501
699.5000	3.26465
700.0000	3.22137

##### Extended Information
[コメント情報]
試料名
コメント
測定者
所属
会社	関西大学

[データ情報]
作成日時	2025/04/14 16:02

データタイプ	等間隔データ
横軸	Wavelength [nm]
縦軸	Int.
スタート	422 nm
エンド	700 nm
データ間隔	0.5 nm
データ数	557     

[測定情報]
機種名	FP-8300
シリアル番号	C037361450
  Ex側フォルダ	なし
  Em側フォルダ	なし

付属品名	SCE-846
付属品シリアルNo.	C037361450

測定日時	2025/04/14 16:02

測定モード	蛍光
励起側バンド幅	5 nm
蛍光側バンド幅	5 nm
レスポンス	0.1 sec
感度	Low
測定範囲	422 - 700 nm
データ取込間隔	0.5 nm
励起波長	422.0 nm
走査速度	500 nm/min
オートゲイン	Off
自動シャッタ制御	測定時のみ開く
光源	キセノンランプ
フィルタ	交換時にスキャンを停止する
ブランク補正	Off

