TITLE	
DATA TYPE	FLUORESCENCE SPECTRUM
ORIGIN	JASCO
OWNER	
DATE	25/03/31
TIME	11:33:42
SPECTROMETER/DATA SYSTEM	
LOCALE	1041
RESOLUTION	
DELTAX	0.5
XUNITS	NANOMETERS
YUNITS	INTENSITY
FIRSTX	  422.0000
LASTX	  700.0000
NPOINTS	     557
FIRSTY	   320.61694
MAXY	   875.95441
MINY	     2.46278
XYDATA
422.0000	320.617
422.5000	272.611
423.0000	222.901
423.5000	174.205
424.0000	130.353
424.5000	92.0715
425.0000	62.2966
425.5000	41.025
426.0000	26.6681
426.5000	16.6185
427.0000	10.5466
427.5000	7.00922
428.0000	4.99015
428.5000	4.28837
429.0000	3.97848
429.5000	3.98129
430.0000	4.05178
430.5000	4.30815
431.0000	4.6065
431.5000	4.85435
432.0000	5.19313
432.5000	5.58172
433.0000	6.07675
433.5000	6.70891
434.0000	7.50047
434.5000	8.36909
435.0000	9.29055
435.5000	10.4758
436.0000	11.9467
436.5000	13.5979
437.0000	15.4398
437.5000	17.6207
438.0000	20.329
438.5000	23.5208
439.0000	27.3654
439.5000	31.5382
440.0000	36.3837
440.5000	41.8546
441.0000	48.2847
441.5000	55.8101
442.0000	64.1814
442.5000	73.7986
443.0000	84.3657
443.5000	96.7753
444.0000	111.462
444.5000	128.004
445.0000	145.898
445.5000	165.576
446.0000	188.669
446.5000	214.053
447.0000	242.525
447.5000	273.796
448.0000	306.658
448.5000	341.649
449.0000	378.81
449.5000	419.184
450.0000	461.367
450.5000	502.567
451.0000	543.264
451.5000	584.21
452.0000	626.518
452.5000	665.397
453.0000	701.49
453.5000	734.86
454.0000	765.72
454.5000	792.861
455.0000	815.661
455.5000	835.058
456.0000	850.345
456.5000	861.787
457.0000	870.516
457.5000	874.351
458.0000	875.954
458.5000	874.43
459.0000	869.858
459.5000	862.792
460.0000	854.008
460.5000	843.096
461.0000	830.454
461.5000	815.51
462.0000	799.464
462.5000	783.404
463.0000	767.418
463.5000	749.925
464.0000	730.272
464.5000	711.705
465.0000	693.002
465.5000	673.28
466.0000	652.965
466.5000	633.234
467.0000	614.797
467.5000	596.039
468.0000	576.871
468.5000	558.77
469.0000	542.264
469.5000	526.234
470.0000	511.139
470.5000	497.551
471.0000	484.965
471.5000	472.364
472.0000	460.773
472.5000	449.905
473.0000	440.77
473.5000	434.502
474.0000	428.992
474.5000	424.384
475.0000	421.458
475.5000	419.708
476.0000	418.936
476.5000	420.395
477.0000	423.125
477.5000	427.692
478.0000	433.597
478.5000	440.162
479.0000	448.026
479.5000	456.619
480.0000	465.938
480.5000	475.485
481.0000	486.324
481.5000	496.573
482.0000	507.298
482.5000	517.31
483.0000	526.952
483.5000	536.302
484.0000	545.382
484.5000	553.16
485.0000	560.789
485.5000	566.2
486.0000	571.411
486.5000	575.693
487.0000	577.798
487.5000	580.471
488.0000	581.397
488.5000	580.501
489.0000	578.644
489.5000	576.168
490.0000	571.643
490.5000	565.222
491.0000	558.135
491.5000	549.002
492.0000	538.624
492.5000	528.015
493.0000	515.758
493.5000	503.36
494.0000	489.731
494.5000	475.948
495.0000	460.885
495.5000	444.909
496.0000	430.484
496.5000	415.386
497.0000	400.952
497.5000	386.33
498.0000	372.492
498.5000	358.724
499.0000	345.505
499.5000	331.937
500.0000	319.281
500.5000	307.139
501.0000	296.229
501.5000	285.562
502.0000	274.878
502.5000	265.412
503.0000	256.059
503.5000	247.505
504.0000	239.227
504.5000	232.17
505.0000	225.613
505.5000	219.37
506.0000	213.351
506.5000	208.016
507.0000	203.393
507.5000	199.043
508.0000	195.361
508.5000	192.131
509.0000	189.048
509.5000	186.193
510.0000	182.861
510.5000	181.216
511.0000	179.981
511.5000	178.294
512.0000	176.693
512.5000	175.789
513.0000	175.213
513.5000	174.228
514.0000	173.567
514.5000	173.539
515.0000	173.764
515.5000	173.806
516.0000	174.115
516.5000	174.042
517.0000	174.3
517.5000	174.436
518.0000	175.016
518.5000	175.62
519.0000	176.303
519.5000	176.101
520.0000	176.792
520.5000	177.197
521.0000	177.477
521.5000	177.903
522.0000	178.335
522.5000	178.236
523.0000	178.889
523.5000	178.796
524.0000	178.663
524.5000	178.842
525.0000	178.421
525.5000	178.632
526.0000	178.137
526.5000	177.838
527.0000	177.247
527.5000	176.554
528.0000	176.116
528.5000	176.027
529.0000	175.256
529.5000	174.264
530.0000	173.331
530.5000	172.723
531.0000	171.442
531.5000	169.91
532.0000	169.058
532.5000	167.592
533.0000	166.093
533.5000	164.923
534.0000	162.947
534.5000	161.268
535.0000	159.667
535.5000	157.796
536.0000	156.462
536.5000	154.404
537.0000	152.916
537.5000	151.055
538.0000	149.071
538.5000	147.447
539.0000	145.761
539.5000	143.937
540.0000	141.824
540.5000	139.111
541.0000	137.394
541.5000	135.633
542.0000	133.871
542.5000	132.184
543.0000	130.819
543.5000	128.927
544.0000	127.536
544.5000	125.63
545.0000	124.354
545.5000	123.17
546.0000	121.404
546.5000	119.932
547.0000	118.692
547.5000	117.101
548.0000	116.15
548.5000	114.8
549.0000	113.497
549.5000	112.511
550.0000	111.505
550.5000	110.669
551.0000	110.159
551.5000	108.373
552.0000	107.36
552.5000	106.116
553.0000	105.391
553.5000	104.967
554.0000	103.934
554.5000	103.052
555.0000	102.604
555.5000	101.785
556.0000	100.774
556.5000	100.362
557.0000	99.4213
557.5000	99.0368
558.0000	98.4098
558.5000	97.8388
559.0000	96.8919
559.5000	95.9942
560.0000	95.2313
560.5000	94.5978
561.0000	93.9868
561.5000	93.3808
562.0000	92.3517
562.5000	91.9388
563.0000	90.974
563.5000	90.3886
564.0000	89.7182
564.5000	89.1054
565.0000	88.467
565.5000	87.7103
566.0000	86.7522
566.5000	86.2701
567.0000	85.6698
567.5000	84.5773
568.0000	83.9821
568.5000	83.6246
569.0000	82.8123
569.5000	81.6549
570.0000	81.0002
570.5000	80.3564
571.0000	79.3632
571.5000	78.6655
572.0000	77.8461
572.5000	77.1914
573.0000	76.5659
573.5000	75.5673
574.0000	74.8936
574.5000	73.9977
575.0000	72.8867
575.5000	72.053
576.0000	71.3506
576.5000	70.5923
577.0000	69.9727
577.5000	68.8151
578.0000	67.9129
578.5000	67.1837
579.0000	66.5171
579.5000	65.863
580.0000	64.8361
580.5000	64.2534
581.0000	63.456
581.5000	62.4034
582.0000	61.6639
582.5000	60.7634
583.0000	60.0766
583.5000	59.4722
584.0000	58.7678
584.5000	58.1255
585.0000	57.2592
585.5000	56.6795
586.0000	55.6782
586.5000	55.0675
587.0000	54.4848
587.5000	53.7184
588.0000	53.1267
588.5000	52.3166
589.0000	51.7409
589.5000	50.9975
590.0000	50.2621
590.5000	49.6795
591.0000	49.1601
591.5000	48.3335
592.0000	47.9364
592.5000	47.3588
593.0000	46.5685
593.5000	46.3944
594.0000	45.574
594.5000	45.036
595.0000	44.2917
595.5000	43.5731
596.0000	43.2702
596.5000	42.5651
597.0000	42.1558
597.5000	41.6167
598.0000	41.0751
598.5000	40.5023
599.0000	39.9628
599.5000	39.6668
600.0000	39.1701
600.5000	38.5814
601.0000	38.3808
601.5000	37.8429
602.0000	37.3479
602.5000	36.9069
603.0000	36.674
603.5000	36.0972
604.0000	35.5395
604.5000	35.1255
605.0000	34.66
605.5000	34.1272
606.0000	33.7421
606.5000	33.4907
607.0000	32.9401
607.5000	32.5566
608.0000	32.2409
608.5000	31.8424
609.0000	31.4727
609.5000	31.0693
610.0000	30.4552
610.5000	30.024
611.0000	29.6941
611.5000	29.37
612.0000	29.0874
612.5000	28.6979
613.0000	28.408
613.5000	28.0348
614.0000	27.8015
614.5000	27.3056
615.0000	26.8255
615.5000	26.6088
616.0000	26.3727
616.5000	25.8603
617.0000	25.615
617.5000	25.3567
618.0000	25.0141
618.5000	24.4825
619.0000	24.2216
619.5000	24.0517
620.0000	23.7336
620.5000	23.3408
621.0000	23.0383
621.5000	22.6426
622.0000	22.2498
622.5000	21.9369
623.0000	21.8557
623.5000	21.463
624.0000	21.1296
624.5000	20.8901
625.0000	20.6744
625.5000	20.4081
626.0000	20.0925
626.5000	19.7978
627.0000	19.4903
627.5000	19.1552
628.0000	18.9054
628.5000	18.6924
629.0000	18.5737
629.5000	18.4043
630.0000	18.064
630.5000	17.8214
631.0000	17.4747
631.5000	17.2269
632.0000	16.9772
632.5000	16.7172
633.0000	16.481
633.5000	16.2632
634.0000	16.123
634.5000	15.9142
635.0000	15.6474
635.5000	15.3199
636.0000	15.228
636.5000	14.9803
637.0000	14.7575
637.5000	14.6712
638.0000	14.3602
638.5000	13.9325
639.0000	13.8174
639.5000	13.79
640.0000	13.622
640.5000	13.2954
641.0000	13.1843
641.5000	12.9276
642.0000	12.75
642.5000	12.449
643.0000	12.2774
643.5000	12.031
644.0000	11.9566
644.5000	11.7711
645.0000	11.7466
645.5000	11.6417
646.0000	11.5942
646.5000	11.2749
647.0000	11.0185
647.5000	10.8218
648.0000	10.6528
648.5000	10.4905
649.0000	10.3065
649.5000	10.2682
650.0000	10.1263
650.5000	9.98577
651.0000	9.81065
651.5000	9.77507
652.0000	9.63517
652.5000	9.45352
653.0000	9.25353
653.5000	9.08764
654.0000	9.01646
654.5000	8.81885
655.0000	8.71505
655.5000	8.59634
656.0000	8.53049
656.5000	8.28645
657.0000	8.31059
657.5000	8.19415
658.0000	8.00296
658.5000	7.84377
659.0000	7.78677
659.5000	7.66516
660.0000	7.56658
660.5000	7.49273
661.0000	7.3733
661.5000	7.30523
662.0000	7.16895
662.5000	7.03701
663.0000	6.87322
663.5000	6.83614
664.0000	6.81823
664.5000	6.64197
665.0000	6.6206
665.5000	6.53606
666.0000	6.43527
666.5000	6.34968
667.0000	6.26207
667.5000	6.11525
668.0000	5.98795
668.5000	5.86368
669.0000	5.82977
669.5000	5.80829
670.0000	5.66909
670.5000	5.5903
671.0000	5.51293
671.5000	5.48745
672.0000	5.40345
672.5000	5.34811
673.0000	5.20106
673.5000	5.29062
674.0000	5.07964
674.5000	4.9111
675.0000	4.90258
675.5000	4.82441
676.0000	4.71398
676.5000	4.67894
677.0000	4.66398
677.5000	4.62116
678.0000	4.57852
678.5000	4.44602
679.0000	4.37016
679.5000	4.37691
680.0000	4.2717
680.5000	4.16767
681.0000	4.13658
681.5000	4.06976
682.0000	4.00505
682.5000	3.9669
683.0000	3.95367
683.5000	3.92683
684.0000	3.75859
684.5000	3.71131
685.0000	3.67891
685.5000	3.62302
686.0000	3.53663
686.5000	3.51598
687.0000	3.47971
687.5000	3.39468
688.0000	3.37733
688.5000	3.34291
689.0000	3.30776
689.5000	3.29534
690.0000	3.25323
690.5000	3.20319
691.0000	3.14676
691.5000	3.0603
692.0000	3.08153
692.5000	2.98598
693.0000	2.96544
693.5000	2.98453
694.0000	2.91887
694.5000	2.91297
695.0000	2.84622
695.5000	2.80824
696.0000	2.72563
696.5000	2.63561
697.0000	2.65289
697.5000	2.63779
698.0000	2.57023
698.5000	2.55992
699.0000	2.56754
699.5000	2.49702
700.0000	2.46278

##### Extended Information
[コメント情報]
試料名
コメント
測定者
所属
会社	関西大学

[データ情報]
作成日時	2025/03/31 11:33

データタイプ	等間隔データ
横軸	Wavelength [nm]
縦軸	Int.
スタート	422 nm
エンド	700 nm
データ間隔	0.5 nm
データ数	557     

[測定情報]
機種名	FP-8300
シリアル番号	C037361450
  Ex側フォルダ	なし
  Em側フォルダ	なし

付属品名	SCE-846
付属品シリアルNo.	C037361450

測定日時	2025/03/31 11:33

測定モード	蛍光
励起側バンド幅	5 nm
蛍光側バンド幅	5 nm
レスポンス	0.1 sec
感度	Low
測定範囲	422 - 700 nm
データ取込間隔	0.5 nm
励起波長	422.0 nm
走査速度	500 nm/min
オートゲイン	Off
自動シャッタ制御	測定時のみ開く
光源	キセノンランプ
フィルタ	交換時にスキャンを停止する
ブランク補正	Off

