TITLE	
DATA TYPE	FLUORESCENCE SPECTRUM
ORIGIN	JASCO
OWNER	
DATE	25/05/07
TIME	19:38:04
SPECTROMETER/DATA SYSTEM	
LOCALE	1041
RESOLUTION	
DELTAX	0.5
XUNITS	NANOMETERS
YUNITS	INTENSITY
FIRSTX	  422.0000
LASTX	  700.0000
NPOINTS	     557
FIRSTY	  1076.64600
MAXY	  2008.80469
MINY	     1.33183
XYDATA
422.0000	1076.65
422.5000	937.871
423.0000	780.222
423.5000	619.156
424.0000	470.94
424.5000	339.669
425.0000	232.388
425.5000	151.836
426.0000	95.6911
426.5000	57.3538
427.0000	34.9601
427.5000	21.6929
428.0000	14.0039
428.5000	10.6
429.0000	9.34116
429.5000	8.85455
430.0000	9.08319
430.5000	9.35078
431.0000	9.72343
431.5000	10.3345
432.0000	10.996
432.5000	11.7059
433.0000	12.8105
433.5000	14.1309
434.0000	15.5474
434.5000	17.3923
435.0000	19.3421
435.5000	21.622
436.0000	24.503
436.5000	28.0179
437.0000	31.8388
437.5000	36.5427
438.0000	42.3853
438.5000	48.5819
439.0000	55.9269
439.5000	64.9183
440.0000	74.9412
440.5000	86.5406
441.0000	100.197
441.5000	115.899
442.0000	133.88
442.5000	154.015
443.0000	176.806
443.5000	203.005
444.0000	233.259
444.5000	268.518
445.0000	307.174
445.5000	350.17
446.0000	399.669
446.5000	454.316
447.0000	516.036
447.5000	584.653
448.0000	657.998
448.5000	738.082
449.0000	824.181
449.5000	915.208
450.0000	1012.45
450.5000	1111.36
451.0000	1211.44
451.5000	1310.34
452.0000	1408.53
452.5000	1503.36
453.0000	1593.63
453.5000	1677.49
454.0000	1751.02
454.5000	1816.18
455.0000	1873.03
455.5000	1920
456.0000	1955.3
456.5000	1982.14
457.0000	2000.62
457.5000	2008.8
458.0000	2008.52
458.5000	2001.67
459.0000	1988.85
459.5000	1968.48
460.0000	1944.23
460.5000	1915.06
461.0000	1882.55
461.5000	1846.29
462.0000	1808.15
462.5000	1768.72
463.0000	1723.89
463.5000	1680.79
464.0000	1635.97
464.5000	1589.74
465.0000	1542.7
465.5000	1494.26
466.0000	1447.68
466.5000	1400.09
467.0000	1356.07
467.5000	1312.53
468.0000	1268.56
468.5000	1225.24
469.0000	1183.93
469.5000	1145.24
470.0000	1110.7
470.5000	1076.59
471.0000	1044.1
471.5000	1015.11
472.0000	988.352
472.5000	964.437
473.0000	942.6
473.5000	924.778
474.0000	909.994
474.5000	897.407
475.0000	890.44
475.5000	886.693
476.0000	885.514
476.5000	886.613
477.0000	891.854
477.5000	901.248
478.0000	912.511
478.5000	928.197
479.0000	946.781
479.5000	967.024
480.0000	988.541
480.5000	1013.03
481.0000	1036.65
481.5000	1061.69
482.0000	1087.53
482.5000	1113.22
483.0000	1137.64
483.5000	1160.39
484.0000	1180.81
484.5000	1201.16
485.0000	1218.73
485.5000	1233.01
486.0000	1246.05
486.5000	1257.39
487.0000	1264.87
487.5000	1268.94
488.0000	1271.1
488.5000	1270.49
489.0000	1266.15
489.5000	1258.37
490.0000	1247.26
490.5000	1233.08
491.0000	1215.82
491.5000	1195.82
492.0000	1173.2
492.5000	1146.99
493.0000	1119.3
493.5000	1088.78
494.0000	1057.93
494.5000	1026.23
495.0000	993.588
495.5000	958.235
496.0000	922.996
496.5000	889.239
497.0000	855.6
497.5000	822.98
498.0000	789.702
498.5000	757.055
499.0000	726.479
499.5000	697.807
500.0000	670.887
500.5000	643.013
501.0000	616.104
501.5000	590.79
502.0000	567.563
502.5000	546.664
503.0000	526.863
503.5000	506.706
504.0000	488.027
504.5000	471.542
505.0000	455.959
505.5000	440.936
506.0000	427.433
506.5000	415.085
507.0000	403.5
507.5000	393.551
508.0000	385.067
508.5000	375.898
509.0000	368.912
509.5000	363.136
510.0000	356.914
510.5000	351.507
511.0000	346.546
511.5000	342.615
512.0000	340.375
512.5000	338.179
513.0000	335.676
513.5000	333.827
514.0000	332.886
514.5000	331.973
515.0000	330.918
515.5000	330.645
516.0000	330.869
516.5000	331.921
517.0000	330.844
517.5000	331.551
518.0000	332.048
518.5000	332.974
519.0000	333.634
519.5000	334.311
520.0000	334.021
520.5000	334.964
521.0000	335.843
521.5000	335.556
522.0000	335.528
522.5000	336.274
523.0000	335.496
523.5000	335.248
524.0000	335.719
524.5000	334.889
525.0000	334.451
525.5000	333.165
526.0000	332.019
526.5000	330.082
527.0000	327.271
527.5000	325.231
528.0000	323.662
528.5000	321.935
529.0000	319.686
529.5000	316.326
530.0000	313.357
530.5000	310.454
531.0000	306.538
531.5000	302.709
532.0000	298.899
532.5000	295.039
533.0000	290.83
533.5000	286.942
534.0000	282.295
534.5000	277.574
535.0000	272.962
535.5000	268.607
536.0000	264.088
536.5000	259.047
537.0000	254.511
537.5000	249.637
538.0000	244.148
538.5000	239.538
539.0000	234.998
539.5000	230.467
540.0000	225.637
540.5000	221.29
541.0000	216.381
541.5000	212.051
542.0000	207.823
542.5000	203.663
543.0000	199.281
543.5000	195.547
544.0000	191.313
544.5000	187.294
545.0000	183.803
545.5000	180.01
546.0000	176.658
546.5000	173.262
547.0000	170.491
547.5000	167.093
548.0000	164.328
548.5000	161.454
549.0000	158.551
549.5000	156.003
550.0000	153.436
550.5000	150.812
551.0000	148.416
551.5000	146.555
552.0000	144.484
552.5000	141.937
553.0000	139.923
553.5000	138.068
554.0000	136.704
554.5000	134.938
555.0000	133.694
555.5000	132.145
556.0000	130.214
556.5000	129.015
557.0000	127.662
557.5000	126.286
558.0000	124.675
558.5000	123.227
559.0000	122.135
559.5000	120.82
560.0000	119.561
560.5000	118.242
561.0000	116.887
561.5000	115.725
562.0000	114.43
562.5000	113.415
563.0000	111.952
563.5000	110.897
564.0000	109.81
564.5000	108.393
565.0000	107.174
565.5000	106.166
566.0000	104.892
566.5000	103.475
567.0000	102.022
567.5000	100.664
568.0000	99.378
568.5000	98.6997
569.0000	96.7437
569.5000	95.7328
570.0000	94.3468
570.5000	93.1861
571.0000	91.7308
571.5000	90.536
572.0000	88.98
572.5000	87.3663
573.0000	86.1114
573.5000	84.6272
574.0000	83.3162
574.5000	81.9105
575.0000	80.6689
575.5000	79.3761
576.0000	78.2942
576.5000	76.8215
577.0000	75.3174
577.5000	73.9044
578.0000	72.2491
578.5000	70.8234
579.0000	69.721
579.5000	68.4958
580.0000	67.3019
580.5000	66.0351
581.0000	65.039
581.5000	63.6318
582.0000	62.0748
582.5000	61.2039
583.0000	60.0341
583.5000	58.7123
584.0000	57.4386
584.5000	56.2879
585.0000	55.1244
585.5000	54.0722
586.0000	53.1264
586.5000	52.202
587.0000	51.0791
587.5000	50.0502
588.0000	49.0916
588.5000	47.9796
589.0000	47.0106
589.5000	46.2025
590.0000	45.3962
590.5000	44.4899
591.0000	43.5199
591.5000	42.9105
592.0000	41.914
592.5000	40.941
593.0000	40.3711
593.5000	39.6789
594.0000	38.9987
594.5000	38.3294
595.0000	37.5601
595.5000	37.0109
596.0000	36.2576
596.5000	35.5029
597.0000	34.9086
597.5000	34.3244
598.0000	33.816
598.5000	33.2184
599.0000	32.5325
599.5000	31.8202
600.0000	31.2167
600.5000	30.8522
601.0000	30.1813
601.5000	29.9589
602.0000	29.5279
602.5000	28.7693
603.0000	28.3482
603.5000	27.8166
604.0000	27.4985
604.5000	27.0263
605.0000	26.6091
605.5000	26.1501
606.0000	25.7416
606.5000	25.1889
607.0000	24.9679
607.5000	24.5193
608.0000	24.0002
608.5000	23.5493
609.0000	23.2124
609.5000	22.8596
610.0000	22.476
610.5000	22.2021
611.0000	21.8769
611.5000	21.5842
612.0000	21.0764
612.5000	20.6288
613.0000	20.5988
613.5000	20.2611
614.0000	19.7676
614.5000	19.4506
615.0000	19.2734
615.5000	19.0263
616.0000	18.7457
616.5000	18.3404
617.0000	17.9799
617.5000	17.6574
618.0000	17.3703
618.5000	17.067
619.0000	16.8578
619.5000	16.6246
620.0000	16.3914
620.5000	15.9716
621.0000	15.7104
621.5000	15.4861
622.0000	15.2397
622.5000	14.8477
623.0000	14.7642
623.5000	14.5741
624.0000	14.3094
624.5000	14.1719
625.0000	13.8569
625.5000	13.5614
626.0000	13.2697
626.5000	13.0827
627.0000	12.9669
627.5000	12.6959
628.0000	12.4382
628.5000	12.1503
629.0000	12.0432
629.5000	11.8435
630.0000	11.5968
630.5000	11.4386
631.0000	11.2526
631.5000	11.0214
632.0000	10.6763
632.5000	10.4782
633.0000	10.4821
633.5000	10.239
634.0000	9.97563
634.5000	9.81437
635.0000	9.73035
635.5000	9.56982
636.0000	9.48883
636.5000	9.30488
637.0000	9.02812
637.5000	8.76263
638.0000	8.67811
638.5000	8.60032
639.0000	8.43144
639.5000	8.31871
640.0000	8.09372
640.5000	8.02019
641.0000	7.86294
641.5000	7.74601
642.0000	7.66116
642.5000	7.62499
643.0000	7.49792
643.5000	7.33907
644.0000	7.15262
644.5000	7.07325
645.0000	7.07036
645.5000	6.98211
646.0000	6.8248
646.5000	6.68597
647.0000	6.64117
647.5000	6.63409
648.0000	6.32447
648.5000	6.26928
649.0000	6.28886
649.5000	6.22588
650.0000	6.0874
650.5000	6.03891
651.0000	6.05952
651.5000	5.99575
652.0000	5.82359
652.5000	5.78875
653.0000	5.69165
653.5000	5.63598
654.0000	5.55584
654.5000	5.54518
655.0000	5.43044
655.5000	5.32567
656.0000	5.22963
656.5000	5.1081
657.0000	5.05881
657.5000	4.96899
658.0000	4.85094
658.5000	4.80955
659.0000	4.74609
659.5000	4.67621
660.0000	4.62552
660.5000	4.45987
661.0000	4.42241
661.5000	4.35443
662.0000	4.20362
662.5000	4.19849
663.0000	4.12523
663.5000	4.07432
664.0000	4.00457
664.5000	3.98277
665.0000	3.87261
665.5000	3.76878
666.0000	3.65673
666.5000	3.6474
667.0000	3.65401
667.5000	3.58446
668.0000	3.5046
668.5000	3.46184
669.0000	3.38966
669.5000	3.29456
670.0000	3.29968
670.5000	3.17921
671.0000	3.1141
671.5000	3.08594
672.0000	3.01577
672.5000	2.95669
673.0000	2.96115
673.5000	2.91613
674.0000	2.81966
674.5000	2.80013
675.0000	2.77693
675.5000	2.64055
676.0000	2.58972
676.5000	2.63427
677.0000	2.57642
677.5000	2.51587
678.0000	2.4914
678.5000	2.51771
679.0000	2.4531
679.5000	2.36374
680.0000	2.28827
680.5000	2.19506
681.0000	2.25089
681.5000	2.178
682.0000	2.18501
682.5000	2.11092
683.0000	2.07832
683.5000	2.07301
684.0000	2.07899
684.5000	2.07057
685.0000	1.96072
685.5000	1.94015
686.0000	1.92025
686.5000	1.8568
687.0000	1.85768
687.5000	1.83788
688.0000	1.83093
688.5000	1.84263
689.0000	1.79934
689.5000	1.7454
690.0000	1.71269
690.5000	1.71017
691.0000	1.69649
691.5000	1.68034
692.0000	1.62461
692.5000	1.61434
693.0000	1.56333
693.5000	1.57625
694.0000	1.55005
694.5000	1.52255
695.0000	1.46181
695.5000	1.51896
696.0000	1.50139
696.5000	1.46614
697.0000	1.47446
697.5000	1.41519
698.0000	1.40873
698.5000	1.37957
699.0000	1.38176
699.5000	1.37656
700.0000	1.33183

##### Extended Information
[コメント情報]
試料名
コメント
測定者
所属
会社	関西大学

[データ情報]
作成日時	2025/05/07 19:38

データタイプ	等間隔データ
横軸	Wavelength [nm]
縦軸	Int.
スタート	422 nm
エンド	700 nm
データ間隔	0.5 nm
データ数	557     

[測定情報]
機種名	FP-8300
シリアル番号	C037361450
  Ex側フォルダ	なし
  Em側フォルダ	なし

付属品名	SCE-846
付属品シリアルNo.	C037361450

測定日時	2025/05/07 19:38

測定モード	蛍光
励起側バンド幅	5 nm
蛍光側バンド幅	5 nm
レスポンス	0.1 sec
感度	Low
測定範囲	422 - 700 nm
データ取込間隔	0.5 nm
励起波長	422.0 nm
走査速度	500 nm/min
オートゲイン	Off
自動シャッタ制御	測定時のみ開く
光源	キセノンランプ
フィルタ	交換時にスキャンを停止する
ブランク補正	Off

