TITLE	
DATA TYPE	FLUORESCENCE SPECTRUM
ORIGIN	JASCO
OWNER	
DATE	25/01/24
TIME	14:26:57
SPECTROMETER/DATA SYSTEM	
LOCALE	1041
RESOLUTION	
DELTAX	0.5
XUNITS	NANOMETERS
YUNITS	INTENSITY
FIRSTX	  422.0000
LASTX	  700.0000
NPOINTS	     557
FIRSTY	   100.23979
MAXY	  2889.43774
MINY	     3.46946
XYDATA
422.0000	100.24
422.5000	91.6454
423.0000	81.1217
423.5000	69.3555
424.0000	56.7902
424.5000	44.6357
425.0000	33.9255
425.5000	25.2607
426.0000	18.4997
426.5000	13.5403
427.0000	10.4469
427.5000	8.68416
428.0000	7.73092
428.5000	7.51356
429.0000	7.61694
429.5000	7.93974
430.0000	8.47811
430.5000	9.22167
431.0000	10.0311
431.5000	11.1077
432.0000	12.2766
432.5000	13.4952
433.0000	15.1343
433.5000	17.1491
434.0000	19.2768
434.5000	21.8482
435.0000	25.0117
435.5000	28.6835
436.0000	33.0291
436.5000	38.2467
437.0000	44.141
437.5000	51.4749
438.0000	59.6849
438.5000	69.1867
439.0000	80.4669
439.5000	93.8072
440.0000	108.551
440.5000	125.162
441.0000	144.489
441.5000	167.375
442.0000	194.304
442.5000	223.467
443.0000	256.039
443.5000	292.802
444.0000	336.689
444.5000	386.515
445.0000	442.036
445.5000	503.709
446.0000	573.869
446.5000	651.145
447.0000	738.045
447.5000	833.127
448.0000	935.838
448.5000	1046.51
449.0000	1164.76
449.5000	1291.71
450.0000	1423.08
450.5000	1554.44
451.0000	1689.24
451.5000	1826.33
452.0000	1960.8
452.5000	2093.25
453.0000	2219.74
453.5000	2335.38
454.0000	2442.12
454.5000	2540.41
455.0000	2626.87
455.5000	2699.99
456.0000	2760.03
456.5000	2807.43
457.0000	2843.56
457.5000	2867.45
458.0000	2882.44
458.5000	2889.44
459.0000	2885.05
459.5000	2869.92
460.0000	2850.09
460.5000	2821.45
461.0000	2786.63
461.5000	2748.36
462.0000	2707.57
462.5000	2659.93
463.0000	2605.24
463.5000	2548.6
464.0000	2492
464.5000	2435.33
465.0000	2374.01
465.5000	2309.97
466.0000	2247.85
466.5000	2186.62
467.0000	2124.95
467.5000	2064.59
468.0000	2003.5
468.5000	1944.1
469.0000	1887.57
469.5000	1834.96
470.0000	1784.08
470.5000	1734.97
471.0000	1690.19
471.5000	1648.1
472.0000	1610.53
472.5000	1576.25
473.0000	1543.94
473.5000	1519.64
474.0000	1499.32
474.5000	1482.55
475.0000	1470.07
475.5000	1462.59
476.0000	1461.91
476.5000	1466.22
477.0000	1474.38
477.5000	1487.03
478.0000	1505.81
478.5000	1525.81
479.0000	1550.56
479.5000	1580.96
480.0000	1612.77
480.5000	1646.43
481.0000	1680.78
481.5000	1716.45
482.0000	1753.24
482.5000	1788.17
483.0000	1823.68
483.5000	1857.73
484.0000	1888.64
484.5000	1916.39
485.0000	1943.32
485.5000	1965.77
486.0000	1985.45
486.5000	2001.28
487.0000	2015.16
487.5000	2023.84
488.0000	2027.75
488.5000	2028.33
489.0000	2024.8
489.5000	2018.14
490.0000	2005.43
490.5000	1987.46
491.0000	1964.74
491.5000	1937.44
492.0000	1907.36
492.5000	1870.46
493.0000	1830.36
493.5000	1787.59
494.0000	1741.97
494.5000	1694.78
495.0000	1645.58
495.5000	1594.19
496.0000	1544.62
496.5000	1493.77
497.0000	1442.61
497.5000	1394.29
498.0000	1344.78
498.5000	1297.03
499.0000	1251.04
499.5000	1204.84
500.0000	1162.7
500.5000	1119.75
501.0000	1078.38
501.5000	1041.62
502.0000	1004.62
502.5000	970.975
503.0000	938.048
503.5000	906.38
504.0000	877.752
504.5000	851.813
505.0000	827.189
505.5000	804.018
506.0000	782.53
506.5000	762.865
507.0000	746.117
507.5000	730.084
508.0000	715.482
508.5000	702.667
509.0000	690.177
509.5000	680.645
510.0000	671.643
510.5000	664.13
511.0000	656.334
511.5000	651.257
512.0000	646.008
512.5000	641.114
513.0000	637.968
513.5000	636.909
514.0000	634.764
514.5000	632.934
515.0000	632.281
515.5000	631.657
516.0000	631.115
516.5000	631.132
517.0000	632.341
517.5000	633.686
518.0000	635.22
518.5000	636.26
519.0000	636.45
519.5000	637.78
520.0000	639.276
520.5000	640.39
521.0000	642.284
521.5000	643.916
522.0000	643.782
522.5000	644.137
523.0000	645.844
523.5000	646.505
524.0000	646.159
524.5000	645.038
525.0000	645.183
525.5000	644.426
526.0000	643.75
526.5000	642.466
527.0000	640.934
527.5000	638.735
528.0000	636.791
528.5000	633.057
529.0000	630.352
529.5000	627.329
530.0000	622.514
530.5000	618.282
531.0000	613.725
531.5000	608.4
532.0000	603.542
532.5000	597.793
533.0000	592.31
533.5000	586.516
534.0000	579.063
534.5000	572.983
535.0000	565.039
535.5000	557.113
536.0000	550.737
536.5000	543.492
537.0000	536.028
537.5000	528.251
538.0000	520.716
538.5000	512.966
539.0000	504.706
539.5000	496.728
540.0000	489.079
540.5000	479.71
541.0000	471.912
541.5000	464.449
542.0000	457.474
542.5000	449.764
543.0000	442.506
543.5000	435.497
544.0000	428.188
544.5000	421.794
545.0000	415.029
545.5000	407.904
546.0000	401.139
546.5000	395.454
547.0000	389.952
547.5000	383.861
548.0000	378.186
548.5000	372.912
549.0000	367.733
549.5000	362.814
550.0000	357.464
550.5000	351.963
551.0000	347.421
551.5000	343.047
552.0000	338.421
552.5000	333.996
553.0000	330.142
553.5000	326.31
554.0000	322.15
554.5000	318.733
555.0000	315.19
555.5000	311.261
556.0000	307.685
556.5000	303.86
557.0000	300.193
557.5000	296.961
558.0000	294.531
558.5000	290.666
559.0000	287.408
559.5000	284.619
560.0000	282.085
560.5000	278.182
561.0000	275.754
561.5000	272.969
562.0000	269.589
562.5000	266.57
563.0000	263.916
563.5000	260.804
564.0000	257.252
564.5000	254.278
565.0000	251.475
565.5000	249.044
566.0000	245.806
566.5000	242.516
567.0000	239.699
567.5000	237.256
568.0000	234.32
568.5000	230.546
569.0000	228.522
569.5000	225.688
570.0000	222.742
570.5000	219.64
571.0000	216.472
571.5000	213.703
572.0000	210.609
572.5000	207.405
573.0000	204.962
573.5000	202.023
574.0000	198.787
574.5000	195.893
575.0000	193.562
575.5000	190.162
576.0000	187.021
576.5000	184.982
577.0000	182.421
577.5000	179.455
578.0000	176.322
578.5000	173.307
579.0000	170.636
579.5000	167.984
580.0000	165.256
580.5000	162.725
581.0000	160.063
581.5000	156.97
582.0000	154.633
582.5000	152.432
583.0000	149.509
583.5000	147.302
584.0000	145.249
584.5000	142.785
585.0000	140.121
585.5000	138.047
586.0000	135.772
586.5000	133.47
587.0000	131.063
587.5000	128.703
588.0000	126.872
588.5000	124.627
589.0000	122.875
589.5000	120.914
590.0000	118.684
590.5000	116.926
591.0000	114.842
591.5000	112.636
592.0000	110.803
592.5000	109.643
593.0000	107.691
593.5000	105.858
594.0000	103.933
594.5000	102.671
595.0000	100.664
595.5000	99.0024
596.0000	97.6847
596.5000	95.9529
597.0000	94.9043
597.5000	93.3183
598.0000	91.9203
598.5000	90.4761
599.0000	88.7636
599.5000	87.5764
600.0000	86.3053
600.5000	84.8215
601.0000	83.2428
601.5000	82.0009
602.0000	81.2149
602.5000	79.9645
603.0000	78.6631
603.5000	77.5796
604.0000	76.5948
604.5000	75.2712
605.0000	74.4696
605.5000	73.2647
606.0000	71.9476
606.5000	70.8578
607.0000	69.8562
607.5000	68.8134
608.0000	67.9133
608.5000	66.626
609.0000	65.7375
609.5000	64.8977
610.0000	63.7872
610.5000	62.8768
611.0000	61.8071
611.5000	60.7967
612.0000	59.8942
612.5000	59.0042
613.0000	58.063
613.5000	57.2838
614.0000	56.5479
614.5000	55.4858
615.0000	54.6911
615.5000	53.6993
616.0000	52.8772
616.5000	52.1348
617.0000	51.4593
617.5000	50.8017
618.0000	49.8883
618.5000	49.3437
619.0000	48.6715
619.5000	47.8259
620.0000	46.9779
620.5000	46.3442
621.0000	45.5663
621.5000	44.8442
622.0000	44.0566
622.5000	43.3902
623.0000	42.6697
623.5000	42.127
624.0000	41.5775
624.5000	40.9139
625.0000	40.3938
625.5000	39.637
626.0000	38.8961
626.5000	38.2528
627.0000	37.5334
627.5000	36.8728
628.0000	36.4663
628.5000	35.7128
629.0000	35.2255
629.5000	34.6497
630.0000	34.0539
630.5000	33.5516
631.0000	32.8855
631.5000	32.4064
632.0000	31.7714
632.5000	31.2798
633.0000	30.9701
633.5000	30.4838
634.0000	29.8433
634.5000	29.3777
635.0000	28.8253
635.5000	28.4101
636.0000	27.8847
636.5000	27.3747
637.0000	27.0727
637.5000	26.5899
638.0000	26.0743
638.5000	25.6979
639.0000	25.4584
639.5000	25.027
640.0000	24.5412
640.5000	24.0333
641.0000	23.5993
641.5000	23.1708
642.0000	22.7349
642.5000	22.3944
643.0000	22.0069
643.5000	21.742
644.0000	21.1773
644.5000	21.1623
645.0000	20.9159
645.5000	20.4201
646.0000	19.9199
646.5000	19.6245
647.0000	19.4683
647.5000	19.1987
648.0000	18.8493
648.5000	18.5098
649.0000	18.1796
649.5000	17.8375
650.0000	17.5397
650.5000	17.1628
651.0000	16.9299
651.5000	16.7061
652.0000	16.5062
652.5000	16.11
653.0000	16.0217
653.5000	15.5305
654.0000	15.2575
654.5000	15.0267
655.0000	14.7028
655.5000	14.5111
656.0000	14.4346
656.5000	14.2024
657.0000	13.985
657.5000	13.6055
658.0000	13.3047
658.5000	13.1728
659.0000	12.9691
659.5000	12.8569
660.0000	12.6186
660.5000	12.3593
661.0000	12.082
661.5000	11.9408
662.0000	11.8462
662.5000	11.6332
663.0000	11.4295
663.5000	11.1227
664.0000	10.874
664.5000	10.8563
665.0000	10.5436
665.5000	10.5149
666.0000	10.322
666.5000	10.163
667.0000	10.0016
667.5000	9.83711
668.0000	9.64004
668.5000	9.53185
669.0000	9.33936
669.5000	9.19296
670.0000	9.06383
670.5000	8.90164
671.0000	8.68699
671.5000	8.55695
672.0000	8.53958
672.5000	8.35423
673.0000	8.17081
673.5000	8.04503
674.0000	7.83784
674.5000	7.84912
675.0000	7.68177
675.5000	7.51253
676.0000	7.38283
676.5000	7.36192
677.0000	7.22574
677.5000	7.10503
678.0000	6.92442
678.5000	6.78889
679.0000	6.75419
679.5000	6.70613
680.0000	6.5446
680.5000	6.35311
681.0000	6.24795
681.5000	6.27133
682.0000	6.11749
682.5000	6.0588
683.0000	5.95287
683.5000	5.80417
684.0000	5.71267
684.5000	5.62694
685.0000	5.48667
685.5000	5.51448
686.0000	5.34195
686.5000	5.23471
687.0000	5.15861
687.5000	5.12565
688.0000	5.06118
688.5000	4.95839
689.0000	4.93068
689.5000	4.87699
690.0000	4.69969
690.5000	4.73246
691.0000	4.6359
691.5000	4.54008
692.0000	4.39175
692.5000	4.34708
693.0000	4.32156
693.5000	4.32122
694.0000	4.16274
694.5000	4.07211
695.0000	4.04373
695.5000	4.01053
696.0000	3.96472
696.5000	3.8671
697.0000	3.80545
697.5000	3.72391
698.0000	3.65188
698.5000	3.64064
699.0000	3.59671
699.5000	3.53128
700.0000	3.46946

##### Extended Information
[コメント情報]
試料名
コメント
測定者
所属
会社	関西大学

[データ情報]
作成日時	2025/01/24 14:26

データタイプ	等間隔データ
横軸	Wavelength [nm]
縦軸	Int.
スタート	422 nm
エンド	700 nm
データ間隔	0.5 nm
データ数	557     

[測定情報]
機種名	FP-8300
シリアル番号	C037361450
  Ex側フォルダ	なし
  Em側フォルダ	なし

付属品名	SCE-846
付属品シリアルNo.	C037361450

測定日時	2025/01/24 14:26

測定モード	蛍光
励起側バンド幅	5 nm
蛍光側バンド幅	5 nm
レスポンス	0.1 sec
感度	Low
測定範囲	422 - 700 nm
データ取込間隔	0.5 nm
励起波長	422.0 nm
走査速度	500 nm/min
オートゲイン	Off
自動シャッタ制御	測定時のみ開く
光源	キセノンランプ
フィルタ	交換時にスキャンを停止する
ブランク補正	Off

