TITLE	
DATA TYPE	FLUORESCENCE SPECTRUM
ORIGIN	JASCO
OWNER	
DATE	25/04/13
TIME	19:23:38
SPECTROMETER/DATA SYSTEM	
LOCALE	1041
RESOLUTION	
DELTAX	0.5
XUNITS	NANOMETERS
YUNITS	INTENSITY
FIRSTX	  422.0000
LASTX	  700.0000
NPOINTS	     557
FIRSTY	   165.94582
MAXY	  2038.48096
MINY	     3.83405
XYDATA
422.0000	165.946
422.5000	144.385
423.0000	120.327
423.5000	95.8557
424.0000	73.7314
424.5000	54.1151
425.0000	37.8533
425.5000	25.8743
426.0000	17.6769
426.5000	11.9737
427.0000	8.77826
427.5000	6.99332
428.0000	6.04682
428.5000	5.82642
429.0000	5.89299
429.5000	6.17873
430.0000	6.58294
430.5000	7.11635
431.0000	7.6312
431.5000	8.23371
432.0000	9.07585
432.5000	10.0502
433.0000	11.243
433.5000	12.549
434.0000	13.9364
434.5000	15.6818
435.0000	17.8803
435.5000	20.3874
436.0000	23.3585
436.5000	26.9178
437.0000	31.124
437.5000	35.9412
438.0000	41.7822
438.5000	48.6219
439.0000	56.266
439.5000	65.1775
440.0000	75.7774
440.5000	87.8731
441.0000	101.925
441.5000	117.617
442.0000	135.752
442.5000	156.415
443.0000	179.974
443.5000	205.983
444.0000	237.691
444.5000	272.359
445.0000	311.306
445.5000	355.073
446.0000	404.696
446.5000	459.774
447.0000	521.727
447.5000	590.098
448.0000	663.179
448.5000	742.532
449.0000	826.769
449.5000	916.386
450.0000	1009.19
450.5000	1103.7
451.0000	1200.37
451.5000	1295.27
452.0000	1390.12
452.5000	1484.43
453.0000	1572.48
453.5000	1654.33
454.0000	1729.37
454.5000	1797.14
455.0000	1856.94
455.5000	1907.71
456.0000	1949.47
456.5000	1984.17
457.0000	2010.52
457.5000	2026.49
458.0000	2036.31
458.5000	2038.48
459.0000	2035.18
459.5000	2027.12
460.0000	2011.6
460.5000	1991.19
461.0000	1968.53
461.5000	1942.21
462.0000	1912.08
462.5000	1879.31
463.0000	1841.47
463.5000	1802.86
464.0000	1763.88
464.5000	1723.1
465.0000	1681.11
465.5000	1637.18
466.0000	1592.63
466.5000	1549.59
467.0000	1507.68
467.5000	1467.25
468.0000	1423.89
468.5000	1381.98
469.0000	1343.41
469.5000	1306.33
470.0000	1270.68
470.5000	1237.63
471.0000	1204.68
471.5000	1176.03
472.0000	1149.67
472.5000	1125.92
473.0000	1103.17
473.5000	1084.63
474.0000	1069.83
474.5000	1057.15
475.0000	1048.48
475.5000	1043.44
476.0000	1041.75
476.5000	1044.48
477.0000	1049.32
477.5000	1058.21
478.0000	1070.01
478.5000	1083.69
479.0000	1101.72
479.5000	1121.48
480.0000	1143.16
480.5000	1167.68
481.0000	1192.57
481.5000	1216.63
482.0000	1241.06
482.5000	1265.9
483.0000	1290.09
483.5000	1312.94
484.0000	1335.65
484.5000	1358.13
485.0000	1376.91
485.5000	1393.33
486.0000	1407.42
486.5000	1419.16
487.0000	1428.39
487.5000	1436.73
488.0000	1443.44
488.5000	1445.82
489.0000	1444.44
489.5000	1438.73
490.0000	1428.15
490.5000	1416.47
491.0000	1400.42
491.5000	1383.58
492.0000	1361.34
492.5000	1335.41
493.0000	1309.12
493.5000	1280.25
494.0000	1247.43
494.5000	1213.51
495.0000	1179.17
495.5000	1144.17
496.0000	1109.74
496.5000	1073.99
497.0000	1037.79
497.5000	1003.21
498.0000	969.1
498.5000	935.798
499.0000	902.409
499.5000	871.718
500.0000	841.469
500.5000	811.252
501.0000	782.886
501.5000	756.263
502.0000	730.625
502.5000	705.511
503.0000	682.88
503.5000	660.904
504.0000	640.645
504.5000	622.535
505.0000	605.84
505.5000	590.365
506.0000	574.697
506.5000	560.328
507.0000	549.635
507.5000	538.42
508.0000	527.891
508.5000	518.577
509.0000	509.573
509.5000	502.645
510.0000	496.079
510.5000	490.644
511.0000	486.079
511.5000	481.84
512.0000	477.996
512.5000	474.873
513.0000	472.718
513.5000	470.93
514.0000	469.25
514.5000	468.479
515.0000	467.487
515.5000	467.377
516.0000	467.225
516.5000	467.255
517.0000	468.511
517.5000	468.619
518.0000	469.482
518.5000	470.511
519.0000	472.086
519.5000	473.524
520.0000	473.239
520.5000	474.466
521.0000	475.19
521.5000	476.02
522.0000	476.764
522.5000	477.879
523.0000	478.495
523.5000	479.307
524.0000	479.534
524.5000	480.204
525.0000	479.498
525.5000	478.98
526.0000	479.09
526.5000	479.115
527.0000	478.101
527.5000	476.237
528.0000	474.668
528.5000	473.698
529.0000	471.392
529.5000	468.263
530.0000	466.115
530.5000	464.2
531.0000	461.958
531.5000	457.893
532.0000	453.699
532.5000	450.674
533.0000	446.096
533.5000	442.337
534.0000	437.665
534.5000	432.56
535.0000	427.257
535.5000	423.554
536.0000	417.657
536.5000	412.663
537.0000	407.806
537.5000	402.514
538.0000	397.464
538.5000	392.304
539.0000	386.131
539.5000	381.626
540.0000	375.689
540.5000	369.966
541.0000	364.26
541.5000	359.308
542.0000	354.192
542.5000	349.375
543.0000	343.97
543.5000	338.652
544.0000	333.77
544.5000	328.811
545.0000	324.271
545.5000	319.511
546.0000	315.061
546.5000	310.242
547.0000	305.989
547.5000	301.957
548.0000	298.012
548.5000	294.233
549.0000	291.182
549.5000	287.487
550.0000	282.985
550.5000	279.154
551.0000	276.236
551.5000	272.318
552.0000	269.576
552.5000	266.93
553.0000	263.443
553.5000	260.421
554.0000	257.509
554.5000	254.803
555.0000	252.387
555.5000	249.37
556.0000	246.815
556.5000	244.742
557.0000	241.937
557.5000	239.61
558.0000	237.144
558.5000	234.71
559.0000	232.754
559.5000	230.426
560.0000	228.242
560.5000	225.259
561.0000	223.441
561.5000	221.496
562.0000	219.083
562.5000	217.19
563.0000	214.917
563.5000	213.07
564.0000	210.846
564.5000	208.625
565.0000	206.332
565.5000	204.341
566.0000	202.305
566.5000	199.762
567.0000	197.387
567.5000	195.153
568.0000	193.198
568.5000	191.097
569.0000	189.556
569.5000	186.686
570.0000	184.394
570.5000	182.664
571.0000	180.238
571.5000	178.242
572.0000	175.971
572.5000	173.23
573.0000	170.981
573.5000	168.782
574.0000	166.944
574.5000	165.123
575.0000	162.696
575.5000	160.048
576.0000	157.354
576.5000	155.334
577.0000	153.243
577.5000	151.671
578.0000	149.638
578.5000	147.43
579.0000	145.132
579.5000	142.934
580.0000	141.143
580.5000	139.182
581.0000	137.049
581.5000	135.335
582.0000	133.206
582.5000	131.418
583.0000	129.342
583.5000	127.714
584.0000	125.57
584.5000	123.424
585.0000	121.556
585.5000	120.053
586.0000	118.324
586.5000	116.849
587.0000	115.341
587.5000	113.559
588.0000	111.515
588.5000	110.001
589.0000	108.242
589.5000	106.731
590.0000	104.766
590.5000	103.164
591.0000	102.205
591.5000	100.759
592.0000	99.2573
592.5000	97.6213
593.0000	95.8669
593.5000	94.4823
594.0000	93.181
594.5000	91.9616
595.0000	90.7343
595.5000	89.3444
596.0000	88.2416
596.5000	87.0393
597.0000	85.5626
597.5000	84.2466
598.0000	83.1676
598.5000	82.0807
599.0000	80.6019
599.5000	79.7088
600.0000	78.6234
600.5000	77.5893
601.0000	76.3027
601.5000	75.1762
602.0000	74.1342
602.5000	73.1408
603.0000	72.0218
603.5000	71.3656
604.0000	70.3965
604.5000	69.2425
605.0000	68.4269
605.5000	67.7017
606.0000	66.8558
606.5000	65.582
607.0000	64.7935
607.5000	63.9026
608.0000	62.7596
608.5000	61.9338
609.0000	61.4466
609.5000	60.544
610.0000	59.6704
610.5000	58.7411
611.0000	57.9385
611.5000	57.1688
612.0000	56.3092
612.5000	55.6838
613.0000	54.8835
613.5000	54.1746
614.0000	53.1863
614.5000	52.3463
615.0000	51.5388
615.5000	51.2911
616.0000	50.6172
616.5000	49.6481
617.0000	48.8559
617.5000	48.2931
618.0000	47.5242
618.5000	46.9039
619.0000	46.2681
619.5000	45.5623
620.0000	44.9903
620.5000	44.2881
621.0000	43.561
621.5000	42.9417
622.0000	42.2741
622.5000	41.8433
623.0000	41.2533
623.5000	40.4539
624.0000	39.84
624.5000	39.453
625.0000	38.8101
625.5000	37.9064
626.0000	37.4879
626.5000	37.0754
627.0000	36.4024
627.5000	35.787
628.0000	35.3187
628.5000	34.9603
629.0000	34.3988
629.5000	33.7794
630.0000	33.2601
630.5000	32.679
631.0000	32.073
631.5000	31.8019
632.0000	31.3868
632.5000	30.9847
633.0000	30.18
633.5000	29.7138
634.0000	29.4055
634.5000	28.9588
635.0000	28.5257
635.5000	28.1928
636.0000	27.6238
636.5000	27.331
637.0000	26.8732
637.5000	26.416
638.0000	26.0871
638.5000	25.6517
639.0000	25.1777
639.5000	24.902
640.0000	24.5797
640.5000	24.0769
641.0000	23.6115
641.5000	23.2315
642.0000	22.9286
642.5000	22.4664
643.0000	22.1923
643.5000	22.014
644.0000	21.6142
644.5000	21.1852
645.0000	20.8619
645.5000	20.7851
646.0000	20.282
646.5000	19.9482
647.0000	19.6062
647.5000	19.281
648.0000	18.8942
648.5000	18.6779
649.0000	18.4834
649.5000	18.1051
650.0000	17.6679
650.5000	17.4295
651.0000	17.205
651.5000	16.9865
652.0000	16.9484
652.5000	16.5738
653.0000	16.1883
653.5000	16.0481
654.0000	15.7582
654.5000	15.5646
655.0000	15.2219
655.5000	14.9263
656.0000	14.7844
656.5000	14.5746
657.0000	14.3061
657.5000	14.1498
658.0000	13.9463
658.5000	13.7385
659.0000	13.4916
659.5000	13.327
660.0000	13.0601
660.5000	12.8238
661.0000	12.5476
661.5000	12.4294
662.0000	12.2506
662.5000	12.0642
663.0000	11.7832
663.5000	11.6558
664.0000	11.5486
664.5000	11.3461
665.0000	11.1099
665.5000	11.0146
666.0000	10.848
666.5000	10.7056
667.0000	10.5885
667.5000	10.2866
668.0000	10.1567
668.5000	9.99501
669.0000	9.92336
669.5000	9.65059
670.0000	9.47568
670.5000	9.36475
671.0000	9.12203
671.5000	9.07808
672.0000	8.96243
672.5000	8.77663
673.0000	8.73065
673.5000	8.61481
674.0000	8.54446
674.5000	8.29414
675.0000	8.09026
675.5000	7.94349
676.0000	7.92571
676.5000	7.80141
677.0000	7.64252
677.5000	7.55058
678.0000	7.43091
678.5000	7.38641
679.0000	7.04973
679.5000	7.1197
680.0000	7.11945
680.5000	6.90431
681.0000	6.72648
681.5000	6.63984
682.0000	6.6075
682.5000	6.43084
683.0000	6.28744
683.5000	6.23231
684.0000	6.12307
684.5000	6.01611
685.0000	5.93666
685.5000	5.82845
686.0000	5.80244
686.5000	5.72276
687.0000	5.60912
687.5000	5.58017
688.0000	5.52129
688.5000	5.37142
689.0000	5.34973
689.5000	5.23915
690.0000	5.17491
690.5000	5.1472
691.0000	5.02815
691.5000	4.88184
692.0000	4.79378
692.5000	4.73524
693.0000	4.72284
693.5000	4.61551
694.0000	4.5896
694.5000	4.43754
695.0000	4.38908
695.5000	4.361
696.0000	4.22183
696.5000	4.26212
697.0000	4.26521
697.5000	4.17329
698.0000	4.09507
698.5000	3.99084
699.0000	3.9607
699.5000	3.95582
700.0000	3.83405

##### Extended Information
[コメント情報]
試料名
コメント
測定者
所属
会社	関西大学

[データ情報]
作成日時	2025/04/13 19:23

データタイプ	等間隔データ
横軸	Wavelength [nm]
縦軸	Int.
スタート	422 nm
エンド	700 nm
データ間隔	0.5 nm
データ数	557     

[測定情報]
機種名	FP-8300
シリアル番号	C037361450
  Ex側フォルダ	なし
  Em側フォルダ	なし

付属品名	SCE-846
付属品シリアルNo.	C037361450

測定日時	2025/04/13 19:23

測定モード	蛍光
励起側バンド幅	5 nm
蛍光側バンド幅	5 nm
レスポンス	0.1 sec
感度	Low
測定範囲	422 - 700 nm
データ取込間隔	0.5 nm
励起波長	422.0 nm
走査速度	500 nm/min
オートゲイン	Off
自動シャッタ制御	測定時のみ開く
光源	キセノンランプ
フィルタ	交換時にスキャンを停止する
ブランク補正	Off

