TITLE	
DATA TYPE	FLUORESCENCE SPECTRUM
ORIGIN	JASCO
OWNER	
DATE	25/05/07
TIME	19:29:07
SPECTROMETER/DATA SYSTEM	
LOCALE	1041
RESOLUTION	
DELTAX	0.5
XUNITS	NANOMETERS
YUNITS	INTENSITY
FIRSTX	  422.0000
LASTX	  700.0000
NPOINTS	     557
FIRSTY	   825.24866
MAXY	  2008.46008
MINY	     1.54825
XYDATA
422.0000	825.249
422.5000	718.143
423.0000	597.555
423.5000	476.558
424.0000	362.765
424.5000	261.501
425.0000	179.301
425.5000	117.734
426.0000	74.9985
426.5000	45.3745
427.0000	28.0732
427.5000	17.9311
428.0000	11.9241
428.5000	9.33045
429.0000	8.36211
429.5000	8.152
430.0000	8.33311
430.5000	8.72511
431.0000	9.26791
431.5000	9.97115
432.0000	10.7066
432.5000	11.3734
433.0000	12.463
433.5000	13.8643
434.0000	15.2988
434.5000	16.9275
435.0000	18.9975
435.5000	21.5695
436.0000	24.5446
436.5000	27.9552
437.0000	31.794
437.5000	36.6176
438.0000	42.2278
438.5000	49.0306
439.0000	57.0511
439.5000	65.6247
440.0000	75.5013
440.5000	87.0944
441.0000	101.097
441.5000	116.82
442.0000	134.847
442.5000	154.804
443.0000	177.717
443.5000	203.997
444.0000	234.932
444.5000	269.553
445.0000	308.436
445.5000	351.261
446.0000	400.461
446.5000	455.324
447.0000	517.997
447.5000	586.754
448.0000	659.822
448.5000	738.582
449.0000	823.351
449.5000	914.986
450.0000	1011.41
450.5000	1109.8
451.0000	1208.32
451.5000	1306.33
452.0000	1402.32
452.5000	1495.62
453.0000	1586.05
453.5000	1668.37
454.0000	1743.42
454.5000	1811.3
455.0000	1869.36
455.5000	1916.81
456.0000	1952.08
456.5000	1980.06
457.0000	1999.21
457.5000	2006.92
458.0000	2008.46
458.5000	2002.77
459.0000	1988.98
459.5000	1970.99
460.0000	1947.9
460.5000	1920.52
461.0000	1889.44
461.5000	1854.95
462.0000	1817.51
462.5000	1777.41
463.0000	1736.62
463.5000	1692.79
464.0000	1647.37
464.5000	1600.81
465.0000	1554.32
465.5000	1508.24
466.0000	1461.42
466.5000	1414.82
467.0000	1370.58
467.5000	1325.24
468.0000	1282.81
468.5000	1241.77
469.0000	1201.16
469.5000	1163.52
470.0000	1127.04
470.5000	1092.33
471.0000	1059.97
471.5000	1030.93
472.0000	1004.71
472.5000	980.654
473.0000	960.187
473.5000	941.505
474.0000	925.969
474.5000	913.967
475.0000	907.154
475.5000	900.372
476.0000	899.051
476.5000	901.378
477.0000	905.998
477.5000	914.474
478.0000	926.14
478.5000	939.622
479.0000	957.796
479.5000	977.58
480.0000	997.873
480.5000	1020.87
481.0000	1045.46
481.5000	1068.88
482.0000	1092.15
482.5000	1115.46
483.0000	1137.52
483.5000	1158.57
484.0000	1179.1
484.5000	1198.82
485.0000	1215.08
485.5000	1228.57
486.0000	1240.54
486.5000	1249.72
487.0000	1256.55
487.5000	1259.48
488.0000	1261.14
488.5000	1260.14
489.0000	1254.87
489.5000	1247.48
490.0000	1235.79
490.5000	1220.36
491.0000	1202.93
491.5000	1184.63
492.0000	1162.31
492.5000	1136.39
493.0000	1108.44
493.5000	1079.4
494.0000	1047.39
494.5000	1014.94
495.0000	981.837
495.5000	946.797
496.0000	913.357
496.5000	880.091
497.0000	845.988
497.5000	813.283
498.0000	781.356
498.5000	749.906
499.0000	720.022
499.5000	690.591
500.0000	663.044
500.5000	635.928
501.0000	610.707
501.5000	586.258
502.0000	563.047
502.5000	541.346
503.0000	521.26
503.5000	501.775
504.0000	483.964
504.5000	467.027
505.0000	451.36
505.5000	436.772
506.0000	423.823
506.5000	411.775
507.0000	400.917
507.5000	391.097
508.0000	382.059
508.5000	373.495
509.0000	365.874
509.5000	359.95
510.0000	353.603
510.5000	348.413
511.0000	343.965
511.5000	339.925
512.0000	336.908
512.5000	333.86
513.0000	331.774
513.5000	330.113
514.0000	328.939
514.5000	327.211
515.0000	326.271
515.5000	325.897
516.0000	325.563
516.5000	325.008
517.0000	325.644
517.5000	325.751
518.0000	325.655
518.5000	324.946
519.0000	325.072
519.5000	326.568
520.0000	327.173
520.5000	326.967
521.0000	326.483
521.5000	326.726
522.0000	326.56
522.5000	326.352
523.0000	325.887
523.5000	325.828
524.0000	325.258
524.5000	324.34
525.0000	322.878
525.5000	322.32
526.0000	321.086
526.5000	319.767
527.0000	318.417
527.5000	315.815
528.0000	314.314
528.5000	311.634
529.0000	309.409
529.5000	307.276
530.0000	303.315
530.5000	299.583
531.0000	296.437
531.5000	293.556
532.0000	289.818
532.5000	286.217
533.0000	282.038
533.5000	278.56
534.0000	274.125
534.5000	269.824
535.0000	265.574
535.5000	261.676
536.0000	257.603
536.5000	253.468
537.0000	249.324
537.5000	244.621
538.0000	239.884
538.5000	235.523
539.0000	231.22
539.5000	227.088
540.0000	222.888
540.5000	218.415
541.0000	214.194
541.5000	209.892
542.0000	206.029
542.5000	202.247
543.0000	198.12
543.5000	194.463
544.0000	190.991
544.5000	187.458
545.0000	184.393
545.5000	180.723
546.0000	177.435
546.5000	174.219
547.0000	171.48
547.5000	168.962
548.0000	166.431
548.5000	163.818
549.0000	160.915
549.5000	158.545
550.0000	156.385
550.5000	153.941
551.0000	151.688
551.5000	149.445
552.0000	147.991
552.5000	146.03
553.0000	143.976
553.5000	142.226
554.0000	140.447
554.5000	138.974
555.0000	138.129
555.5000	136.314
556.0000	134.535
556.5000	133.291
557.0000	131.837
557.5000	130.373
558.0000	128.858
558.5000	128.14
559.0000	127.003
559.5000	125.504
560.0000	124.443
560.5000	123.25
561.0000	121.726
561.5000	121.021
562.0000	119.667
562.5000	118.195
563.0000	117.054
563.5000	116.157
564.0000	114.778
564.5000	113.76
565.0000	112.435
565.5000	111.439
566.0000	110.332
566.5000	109.015
567.0000	107.885
567.5000	106.614
568.0000	105.427
568.5000	104.165
569.0000	102.544
569.5000	101.507
570.0000	100.469
570.5000	98.7955
571.0000	97.4966
571.5000	95.7812
572.0000	94.3298
572.5000	93.4093
573.0000	91.9565
573.5000	90.4387
574.0000	89.024
574.5000	87.7995
575.0000	86.5292
575.5000	84.9493
576.0000	83.6554
576.5000	82.2852
577.0000	80.7798
577.5000	79.2974
578.0000	78.2989
578.5000	76.9819
579.0000	75.3387
579.5000	74.5009
580.0000	73.2046
580.5000	71.6981
581.0000	70.3614
581.5000	69.2935
582.0000	68.1251
582.5000	66.4797
583.0000	65.1756
583.5000	63.9355
584.0000	63.0591
584.5000	62.0931
585.0000	60.9567
585.5000	59.6024
586.0000	58.4602
586.5000	57.1156
587.0000	56.084
587.5000	55.2087
588.0000	54.4722
588.5000	53.472
589.0000	52.2983
589.5000	51.0333
590.0000	50.3024
590.5000	49.5185
591.0000	48.5007
591.5000	47.621
592.0000	47.0532
592.5000	45.999
593.0000	44.8905
593.5000	44.0874
594.0000	43.2825
594.5000	42.4522
595.0000	41.8503
595.5000	41.4206
596.0000	40.6425
596.5000	39.9237
597.0000	39.3786
597.5000	38.6792
598.0000	37.9728
598.5000	37.111
599.0000	36.5717
599.5000	36.2772
600.0000	35.4933
600.5000	34.9488
601.0000	34.4043
601.5000	33.9426
602.0000	33.357
602.5000	32.7011
603.0000	32.088
603.5000	31.6032
604.0000	31.1489
604.5000	30.4806
605.0000	30.0601
605.5000	29.7213
606.0000	29.1443
606.5000	28.752
607.0000	28.223
607.5000	27.7984
608.0000	27.3462
608.5000	26.8451
609.0000	26.5243
609.5000	26.2763
610.0000	25.8885
610.5000	25.3423
611.0000	24.8422
611.5000	24.5899
612.0000	24.2384
612.5000	23.9025
613.0000	23.358
613.5000	22.9513
614.0000	22.6659
614.5000	22.3257
615.0000	22.0352
615.5000	21.7208
616.0000	21.2161
616.5000	20.9318
617.0000	20.5568
617.5000	20.2852
618.0000	20.041
618.5000	19.7298
619.0000	19.2561
619.5000	19.0078
620.0000	18.5319
620.5000	18.2924
621.0000	18.0926
621.5000	17.7661
622.0000	17.5789
622.5000	17.2425
623.0000	16.9028
623.5000	16.609
624.0000	16.3756
624.5000	16.2876
625.0000	15.9294
625.5000	15.5533
626.0000	15.2645
626.5000	15.0019
627.0000	14.6839
627.5000	14.4834
628.0000	14.448
628.5000	14.0853
629.0000	13.8563
629.5000	13.5996
630.0000	13.3578
630.5000	13.2217
631.0000	13.0329
631.5000	12.7031
632.0000	12.5621
632.5000	12.3164
633.0000	12.1508
633.5000	11.8642
634.0000	11.7103
634.5000	11.7066
635.0000	11.4951
635.5000	11.3087
636.0000	11.0344
636.5000	10.8637
637.0000	10.6687
637.5000	10.4615
638.0000	10.3444
638.5000	10.2038
639.0000	9.99676
639.5000	9.89119
640.0000	9.6654
640.5000	9.60243
641.0000	9.36428
641.5000	9.2534
642.0000	9.03589
642.5000	8.9722
643.0000	8.8298
643.5000	8.64067
644.0000	8.53818
644.5000	8.37071
645.0000	8.24443
645.5000	8.07757
646.0000	8.01625
646.5000	8.01318
647.0000	7.75944
647.5000	7.70976
648.0000	7.55877
648.5000	7.42726
649.0000	7.28816
649.5000	7.15209
650.0000	7.10205
650.5000	7.05267
651.0000	6.90168
651.5000	6.83919
652.0000	6.75527
652.5000	6.60126
653.0000	6.63341
653.5000	6.38613
654.0000	6.3885
654.5000	6.24612
655.0000	6.14344
655.5000	6.0416
656.0000	5.90824
656.5000	5.86711
657.0000	5.71241
657.5000	5.5658
658.0000	5.54852
658.5000	5.39175
659.0000	5.3925
659.5000	5.24704
660.0000	5.15897
660.5000	5.10391
661.0000	4.94485
661.5000	4.8916
662.0000	4.83925
662.5000	4.72362
663.0000	4.69395
663.5000	4.57796
664.0000	4.46876
664.5000	4.43916
665.0000	4.33368
665.5000	4.23282
666.0000	4.1857
666.5000	4.14515
667.0000	4.06522
667.5000	3.99922
668.0000	3.91987
668.5000	3.86854
669.0000	3.79386
669.5000	3.74645
670.0000	3.76841
670.5000	3.6062
671.0000	3.57368
671.5000	3.55601
672.0000	3.40097
672.5000	3.37935
673.0000	3.35961
673.5000	3.26465
674.0000	3.26196
674.5000	3.20541
675.0000	3.12921
675.5000	3.04787
676.0000	3.08894
676.5000	3.01346
677.0000	2.93642
677.5000	2.90488
678.0000	2.85543
678.5000	2.81818
679.0000	2.79515
679.5000	2.7296
680.0000	2.68188
680.5000	2.64714
681.0000	2.61566
681.5000	2.49238
682.0000	2.4772
682.5000	2.51013
683.0000	2.41893
683.5000	2.42712
684.0000	2.35923
684.5000	2.3007
685.0000	2.26578
685.5000	2.22286
686.0000	2.17248
686.5000	2.13771
687.0000	2.13547
687.5000	2.07651
688.0000	2.0654
688.5000	2.08088
689.0000	2.02773
689.5000	1.9935
690.0000	2.02263
690.5000	1.94553
691.0000	1.91226
691.5000	1.95086
692.0000	1.89264
692.5000	1.80585
693.0000	1.80527
693.5000	1.80448
694.0000	1.8039
694.5000	1.74899
695.0000	1.75739
695.5000	1.67252
696.0000	1.63683
696.5000	1.65561
697.0000	1.66666
697.5000	1.6297
698.0000	1.62654
698.5000	1.59962
699.0000	1.57851
699.5000	1.54825
700.0000	1.56093

##### Extended Information
[コメント情報]
試料名
コメント
測定者
所属
会社	関西大学

[データ情報]
作成日時	2025/05/07 19:29

データタイプ	等間隔データ
横軸	Wavelength [nm]
縦軸	Int.
スタート	422 nm
エンド	700 nm
データ間隔	0.5 nm
データ数	557     

[測定情報]
機種名	FP-8300
シリアル番号	C037361450
  Ex側フォルダ	なし
  Em側フォルダ	なし

付属品名	SCE-846
付属品シリアルNo.	C037361450

測定日時	2025/05/07 19:29

測定モード	蛍光
励起側バンド幅	5 nm
蛍光側バンド幅	5 nm
レスポンス	0.1 sec
感度	Low
測定範囲	422 - 700 nm
データ取込間隔	0.5 nm
励起波長	422.0 nm
走査速度	500 nm/min
オートゲイン	Off
自動シャッタ制御	測定時のみ開く
光源	キセノンランプ
フィルタ	交換時にスキャンを停止する
ブランク補正	Off

