TITLE	
DATA TYPE	FLUORESCENCE SPECTRUM
ORIGIN	JASCO
OWNER	
DATE	25/03/25
TIME	14:27:33
SPECTROMETER/DATA SYSTEM	
LOCALE	1041
RESOLUTION	
DELTAX	0.5
XUNITS	NANOMETERS
YUNITS	INTENSITY
FIRSTX	  423.0000
LASTX	  700.0000
NPOINTS	     555
FIRSTY	    63.06807
MAXY	   588.32520
MINY	     0.82338
XYDATA
423.0000	63.0681
423.5000	59.1439
424.0000	53.588
424.5000	47.0267
425.0000	39.7052
425.5000	32.332
426.0000	25.5076
426.5000	19.3227
427.0000	14.0734
427.5000	9.88059
428.0000	6.52643
428.5000	4.38198
429.0000	3.09325
429.5000	2.33648
430.0000	2.09451
430.5000	2.0805
431.0000	2.16185
431.5000	2.34057
432.0000	2.53709
432.5000	2.78707
433.0000	3.07466
433.5000	3.42684
434.0000	3.81886
434.5000	4.25297
435.0000	4.80466
435.5000	5.41001
436.0000	6.1283
436.5000	7.00493
437.0000	8.02432
437.5000	9.19084
438.0000	10.496
438.5000	12.0071
439.0000	13.7985
439.5000	15.8548
440.0000	18.1596
440.5000	20.8317
441.0000	23.7862
441.5000	27.1325
442.0000	30.9736
442.5000	35.2809
443.0000	40.1714
443.5000	45.5249
444.0000	51.7457
444.5000	58.8238
445.0000	66.6416
445.5000	75.3464
446.0000	85.0958
446.5000	95.8898
447.0000	108.028
447.5000	121.547
448.0000	135.994
448.5000	151.772
449.0000	168.942
449.5000	187.465
450.0000	207.164
450.5000	227.628
451.0000	248.932
451.5000	270.959
452.0000	293.542
452.5000	316.966
453.0000	340.301
453.5000	363.423
454.0000	385.929
454.5000	407.941
455.0000	429.505
455.5000	450.093
456.0000	469.329
456.5000	487.41
457.0000	504.551
457.5000	520.173
458.0000	534.172
458.5000	546.945
459.0000	557.703
459.5000	566.831
460.0000	574.423
460.5000	580.331
461.0000	584.373
461.5000	587.238
462.0000	588.325
462.5000	587.942
463.0000	585.704
463.5000	582.25
464.0000	577.558
464.5000	571.546
465.0000	564.201
465.5000	555.588
466.0000	546.101
466.5000	535.939
467.0000	525.382
467.5000	514.292
468.0000	503.23
468.5000	491.743
469.0000	480.215
469.5000	468.763
470.0000	457.634
470.5000	446.737
471.0000	436.313
471.5000	426.518
472.0000	417.649
472.5000	409.224
473.0000	401.34
473.5000	395.025
474.0000	389.646
474.5000	385.219
475.0000	381.779
475.5000	379.928
476.0000	379.291
476.5000	379.77
477.0000	381.314
477.5000	384.563
478.0000	388.707
478.5000	394.136
479.0000	400.808
479.5000	408.213
480.0000	416.321
480.5000	425.032
481.0000	434.035
481.5000	443.632
482.0000	453.47
482.5000	463.024
483.0000	471.945
483.5000	480.245
484.0000	488.684
484.5000	496.401
485.0000	503.039
485.5000	508.724
486.0000	513.835
486.5000	518.256
487.0000	521.341
487.5000	523.469
488.0000	524.39
488.5000	524.065
489.0000	522.442
489.5000	519.264
490.0000	515.017
490.5000	509.686
491.0000	502.891
491.5000	494.91
492.0000	485.983
492.5000	475.616
493.0000	464.418
493.5000	452.687
494.0000	440.099
494.5000	427.094
495.0000	413.611
495.5000	399.486
496.0000	385.607
496.5000	372.078
497.0000	358.48
497.5000	345.262
498.0000	332.115
498.5000	319.109
499.0000	306.94
499.5000	294.937
500.0000	283.31
500.5000	271.918
501.0000	261.252
501.5000	251.057
502.0000	241.396
502.5000	232.361
503.0000	223.656
503.5000	215.299
504.0000	207.78
504.5000	200.7
505.0000	194.082
505.5000	187.951
506.0000	182.184
506.5000	176.899
507.0000	172.014
507.5000	167.587
508.0000	163.452
508.5000	159.785
509.0000	156.299
509.5000	153.399
510.0000	150.791
510.5000	148.337
511.0000	146.144
511.5000	144.077
512.0000	142.514
512.5000	141.153
513.0000	139.902
513.5000	138.758
514.0000	137.876
514.5000	137.197
515.0000	136.61
515.5000	136.095
516.0000	135.714
516.5000	135.385
517.0000	135.151
517.5000	134.911
518.0000	134.72
518.5000	134.613
519.0000	134.603
519.5000	134.523
520.0000	134.462
520.5000	134.5
521.0000	134.409
521.5000	134.183
522.0000	133.961
522.5000	133.874
523.0000	133.491
523.5000	133.082
524.0000	132.884
524.5000	132.386
525.0000	131.682
525.5000	131.159
526.0000	130.6
526.5000	129.899
527.0000	129.02
527.5000	128.188
528.0000	127.262
528.5000	126.107
529.0000	124.979
529.5000	123.851
530.0000	122.554
530.5000	121.282
531.0000	119.984
531.5000	118.502
532.0000	117.048
532.5000	115.476
533.0000	114.055
533.5000	112.387
534.0000	110.783
534.5000	109.013
535.0000	107.419
535.5000	105.731
536.0000	103.912
536.5000	102.175
537.0000	100.466
537.5000	98.711
538.0000	97.0454
538.5000	95.4404
539.0000	93.7308
539.5000	92.085
540.0000	90.2097
540.5000	88.1139
541.0000	86.5083
541.5000	84.9327
542.0000	83.3537
542.5000	81.7711
543.0000	80.3018
543.5000	78.9328
544.0000	77.5414
544.5000	76.2585
545.0000	74.843
545.5000	73.5626
546.0000	72.3862
546.5000	71.2483
547.0000	69.9808
547.5000	68.8274
548.0000	67.8756
548.5000	66.9065
549.0000	65.8836
549.5000	64.9127
550.0000	64.0916
550.5000	63.1259
551.0000	62.2878
551.5000	61.5137
552.0000	60.7148
552.5000	59.9816
553.0000	59.3435
553.5000	58.659
554.0000	57.9411
554.5000	57.3479
555.0000	56.7284
555.5000	56.182
556.0000	55.7075
556.5000	55.2355
557.0000	54.6982
557.5000	54.1304
558.0000	53.6452
558.5000	53.1362
559.0000	52.6961
559.5000	52.2733
560.0000	51.8589
560.5000	51.3852
561.0000	50.9394
561.5000	50.4751
562.0000	50.0273
562.5000	49.6212
563.0000	49.2931
563.5000	48.8663
564.0000	48.4021
564.5000	47.9816
565.0000	47.6143
565.5000	47.1732
566.0000	46.6771
566.5000	46.2067
567.0000	45.7426
567.5000	45.3215
568.0000	44.8647
568.5000	44.4419
569.0000	44.0386
569.5000	43.5787
570.0000	43.0846
570.5000	42.4943
571.0000	41.9978
571.5000	41.5808
572.0000	41.0646
572.5000	40.5308
573.0000	40.0331
573.5000	39.5679
574.0000	39.0524
574.5000	38.4435
575.0000	37.9809
575.5000	37.5306
576.0000	36.9823
576.5000	36.467
577.0000	35.9444
577.5000	35.3812
578.0000	34.8785
578.5000	34.4441
579.0000	33.9404
579.5000	33.4043
580.0000	32.9287
580.5000	32.4032
581.0000	31.8322
581.5000	31.3668
582.0000	30.8998
582.5000	30.3689
583.0000	29.898
583.5000	29.4947
584.0000	29.0052
584.5000	28.5357
585.0000	28.0484
585.5000	27.5899
586.0000	27.1483
586.5000	26.7427
587.0000	26.2482
587.5000	25.7966
588.0000	25.4503
588.5000	25.071
589.0000	24.6035
589.5000	24.2581
590.0000	23.8565
590.5000	23.4303
591.0000	23.1049
591.5000	22.6586
592.0000	22.2763
592.5000	21.9742
593.0000	21.5962
593.5000	21.2628
594.0000	20.975
594.5000	20.6029
595.0000	20.2658
595.5000	19.937
596.0000	19.6403
596.5000	19.295
597.0000	18.9906
597.5000	18.7361
598.0000	18.4334
598.5000	18.1081
599.0000	17.8838
599.5000	17.6391
600.0000	17.3491
600.5000	17.0987
601.0000	16.8339
601.5000	16.5914
602.0000	16.351
602.5000	16.1072
603.0000	15.8932
603.5000	15.6932
604.0000	15.4507
604.5000	15.2215
605.0000	14.9732
605.5000	14.7587
606.0000	14.5654
606.5000	14.3265
607.0000	14.1127
607.5000	13.9103
608.0000	13.7296
608.5000	13.5119
609.0000	13.3176
609.5000	13.1297
610.0000	13.0186
610.5000	12.7892
611.0000	12.6105
611.5000	12.3822
612.0000	12.21
612.5000	12.0051
613.0000	11.8696
613.5000	11.7097
614.0000	11.5064
614.5000	11.334
615.0000	11.1873
615.5000	11.0218
616.0000	10.8414
616.5000	10.6873
617.0000	10.5206
617.5000	10.3781
618.0000	10.2208
618.5000	10.0886
619.0000	9.91031
619.5000	9.76875
620.0000	9.64001
620.5000	9.51531
621.0000	9.37849
621.5000	9.18022
622.0000	9.05107
622.5000	8.89464
623.0000	8.81185
623.5000	8.66191
624.0000	8.51817
624.5000	8.43688
625.0000	8.24215
625.5000	8.09789
626.0000	7.98547
626.5000	7.89684
627.0000	7.76024
627.5000	7.63286
628.0000	7.514
628.5000	7.36266
629.0000	7.27503
629.5000	7.16714
630.0000	7.03965
630.5000	6.91801
631.0000	6.78752
631.5000	6.69809
632.0000	6.56456
632.5000	6.46308
633.0000	6.37752
633.5000	6.25317
634.0000	6.14569
634.5000	6.06868
635.0000	5.95263
635.5000	5.85483
636.0000	5.76203
636.5000	5.66604
637.0000	5.59435
637.5000	5.49275
638.0000	5.37521
638.5000	5.29623
639.0000	5.21472
639.5000	5.13614
640.0000	5.02558
640.5000	4.93695
641.0000	4.88706
641.5000	4.80913
642.0000	4.71066
642.5000	4.62244
643.0000	4.53865
643.5000	4.44797
644.0000	4.39233
644.5000	4.33732
645.0000	4.25915
645.5000	4.1883
646.0000	4.13079
646.5000	4.04386
647.0000	3.96526
647.5000	3.90199
648.0000	3.86522
648.5000	3.80926
649.0000	3.75109
649.5000	3.62516
650.0000	3.60654
650.5000	3.57894
651.0000	3.50064
651.5000	3.4765
652.0000	3.40061
652.5000	3.35663
653.0000	3.29756
653.5000	3.21838
654.0000	3.14016
654.5000	3.0998
655.0000	3.07877
655.5000	3.01627
656.0000	2.9678
656.5000	2.93588
657.0000	2.91396
657.5000	2.82689
658.0000	2.79614
658.5000	2.76544
659.0000	2.70862
659.5000	2.66491
660.0000	2.62429
660.5000	2.61326
661.0000	2.55544
661.5000	2.53586
662.0000	2.46917
662.5000	2.44533
663.0000	2.40127
663.5000	2.37622
664.0000	2.33694
664.5000	2.30302
665.0000	2.26111
665.5000	2.23744
666.0000	2.20451
666.5000	2.16179
667.0000	2.13931
667.5000	2.09183
668.0000	2.04334
668.5000	2.01332
669.0000	1.99268
669.5000	1.97729
670.0000	1.93459
670.5000	1.89134
671.0000	1.88879
671.5000	1.875
672.0000	1.82818
672.5000	1.80823
673.0000	1.78702
673.5000	1.76737
674.0000	1.71792
674.5000	1.67897
675.0000	1.66856
675.5000	1.67213
676.0000	1.64366
676.5000	1.57676
677.0000	1.57094
677.5000	1.52753
678.0000	1.51836
678.5000	1.49723
679.0000	1.48617
679.5000	1.44949
680.0000	1.43273
680.5000	1.41882
681.0000	1.40564
681.5000	1.39381
682.0000	1.37207
682.5000	1.32951
683.0000	1.31824
683.5000	1.31111
684.0000	1.28389
684.5000	1.2682
685.0000	1.24919
685.5000	1.25159
686.0000	1.2264
686.5000	1.20116
687.0000	1.18275
687.5000	1.18326
688.0000	1.16454
688.5000	1.14394
689.0000	1.10691
689.5000	1.133
690.0000	1.10068
690.5000	1.09707
691.0000	1.06951
691.5000	1.05696
692.0000	1.01479
692.5000	1.03109
693.0000	1.02984
693.5000	1.00942
694.0000	1.01099
694.5000	0.994521
695.0000	0.975644
695.5000	0.95342
696.0000	0.948784
696.5000	0.943081
697.0000	0.939177
697.5000	0.91617
698.0000	0.886599
698.5000	0.878334
699.0000	0.873265
699.5000	0.849654
700.0000	0.82338

##### Extended Information
[コメント情報]
試料名
コメント
測定者
所属
会社	関西大学

[データ情報]
作成日時	2025/03/25 14:27

データタイプ	等間隔データ
横軸	Wavelength [nm]
縦軸	Int.
スタート	423 nm
エンド	700 nm
データ間隔	0.5 nm
データ数	555     

[測定情報]
機種名	FP-8300
シリアル番号	C037361450
  Ex側フォルダ	なし
  Em側フォルダ	なし

付属品名	SCE-846
付属品シリアルNo.	C037361450

測定日時	2025/03/25 14:27

測定モード	蛍光
励起側バンド幅	5 nm
蛍光側バンド幅	5 nm
レスポンス	0.1 sec
感度	Very low
測定範囲	423 - 700 nm
データ取込間隔	0.5 nm
励起波長	423.0 nm
走査速度	500 nm/min
オートゲイン	Off
自動シャッタ制御	測定時のみ開く
光源	キセノンランプ
フィルタ	交換時にスキャンを停止する
ブランク補正	Off

