TITLE	
DATA TYPE	FLUORESCENCE SPECTRUM
ORIGIN	JASCO
OWNER	
DATE	25/02/07
TIME	11:26:48
SPECTROMETER/DATA SYSTEM	
LOCALE	1041
RESOLUTION	
DELTAX	0.5
XUNITS	NANOMETERS
YUNITS	INTENSITY
FIRSTX	  421.0000
LASTX	  700.0000
NPOINTS	     559
FIRSTY	    56.16395
MAXY	  1069.98376
MINY	     2.26233
XYDATA
421.0000	56.1639
421.5000	51.0676
422.0000	44.6562
422.5000	37.2228
423.0000	29.9194
423.5000	23.1722
424.0000	17.4352
424.5000	12.54
425.0000	8.89233
425.5000	6.36837
426.0000	4.72845
426.5000	3.63459
427.0000	3.08424
427.5000	2.77041
428.0000	2.6809
428.5000	2.81795
429.0000	2.91389
429.5000	3.0466
430.0000	3.34477
430.5000	3.59317
431.0000	3.8755
431.5000	4.22118
432.0000	4.59836
432.5000	5.12003
433.0000	5.69348
433.5000	6.41088
434.0000	7.28456
434.5000	8.24675
435.0000	9.30479
435.5000	10.7699
436.0000	12.4276
436.5000	14.2732
437.0000	16.3977
437.5000	18.9671
438.0000	22.0625
438.5000	25.5204
439.0000	30.1614
439.5000	34.8457
440.0000	40.1628
440.5000	46.462
441.0000	54.1123
441.5000	62.5155
442.0000	72.1852
442.5000	83.2552
443.0000	95.4914
443.5000	109.545
444.0000	126.23
444.5000	144.927
445.0000	165.257
445.5000	188.615
446.0000	214.699
446.5000	243.492
447.0000	276.697
447.5000	313.764
448.0000	352.179
448.5000	392.921
449.0000	437.674
449.5000	485.688
450.0000	534.987
450.5000	584.744
451.0000	635.378
451.5000	685.087
452.0000	734.877
452.5000	783.893
453.0000	829.761
453.5000	872.851
454.0000	911.319
454.5000	946.172
455.0000	977.523
455.5000	1005.49
456.0000	1026.5
456.5000	1042.72
457.0000	1054.64
457.5000	1062.65
458.0000	1067.52
458.5000	1069.98
459.0000	1067.5
459.5000	1061.95
460.0000	1052.26
460.5000	1041.88
461.0000	1029.24
461.5000	1014
462.0000	997.425
462.5000	979.205
463.0000	958.596
463.5000	939.218
464.0000	918.509
464.5000	895.531
465.0000	873.096
465.5000	850.903
466.0000	827.047
466.5000	803.99
467.0000	782.303
467.5000	759.377
468.0000	737.557
468.5000	715.22
469.0000	695.116
469.5000	676.304
470.0000	657.208
470.5000	640.228
471.0000	623.545
471.5000	607.278
472.0000	593.33
472.5000	582.094
473.0000	571.157
473.5000	561.125
474.0000	552.561
474.5000	545.896
475.0000	542.151
475.5000	539.441
476.0000	538.684
476.5000	540.274
477.0000	542.751
477.5000	546.695
478.0000	552.458
478.5000	560.086
479.0000	569.656
479.5000	580.116
480.0000	591.17
480.5000	602.143
481.0000	614.32
481.5000	627.79
482.0000	641.352
482.5000	653.978
483.0000	665.374
483.5000	676.546
484.0000	687.333
484.5000	696.717
485.0000	705.816
485.5000	715.014
486.0000	721.672
486.5000	727.463
487.0000	732.646
487.5000	735.493
488.0000	738.233
488.5000	738.956
489.0000	738.229
489.5000	735.588
490.0000	730.362
490.5000	723.233
491.0000	715.108
491.5000	707.013
492.0000	694.756
492.5000	681.116
493.0000	666.23
493.5000	651.689
494.0000	634.549
494.5000	617.296
495.0000	599.911
495.5000	581.025
496.0000	562.618
496.5000	544.48
497.0000	525.731
497.5000	508.559
498.0000	490.576
498.5000	473.557
499.0000	456.12
499.5000	439.353
500.0000	423.274
500.5000	407.903
501.0000	393.325
501.5000	378.987
502.0000	366.217
502.5000	354.387
503.0000	342.59
503.5000	330.811
504.0000	320.958
504.5000	312.008
505.0000	303.108
505.5000	294.763
506.0000	287.232
506.5000	279.564
507.0000	273.616
507.5000	268.049
508.0000	263.248
508.5000	258.937
509.0000	254.415
509.5000	251.457
510.0000	248.339
510.5000	245.436
511.0000	242.715
511.5000	240.326
512.0000	238.248
512.5000	237.255
513.0000	236.469
513.5000	235.441
514.0000	234.824
514.5000	234.633
515.0000	234.183
515.5000	233.847
516.0000	233.412
516.5000	233.817
517.0000	234.182
517.5000	234.574
518.0000	235.193
518.5000	235.148
519.0000	235.829
519.5000	236.501
520.0000	237.342
520.5000	237.368
521.0000	237.572
521.5000	238.349
522.0000	238.845
522.5000	238.675
523.0000	239.536
523.5000	240.015
524.0000	239.977
524.5000	239.909
525.0000	240.225
525.5000	239.843
526.0000	239.314
526.5000	239.228
527.0000	239.003
527.5000	238.306
528.0000	237.733
528.5000	236.625
529.0000	235.262
529.5000	234.564
530.0000	233.652
530.5000	232.079
531.0000	231.091
531.5000	229.24
532.0000	227.928
532.5000	226.42
533.0000	224.213
533.5000	222.421
534.0000	219.901
534.5000	217.618
535.0000	215.834
535.5000	214.096
536.0000	211.493
536.5000	208.505
537.0000	205.963
537.5000	203.837
538.0000	201.374
538.5000	199.069
539.0000	196.583
539.5000	194.245
540.0000	191.459
540.5000	187.447
541.0000	185.258
541.5000	183.125
542.0000	180.467
542.5000	178.018
543.0000	175.923
543.5000	173.749
544.0000	171.1
544.5000	169.222
545.0000	166.686
545.5000	165.058
546.0000	162.906
546.5000	160.937
547.0000	159.04
547.5000	156.994
548.0000	155.41
548.5000	153.914
549.0000	151.992
549.5000	150.193
550.0000	148.08
550.5000	146.82
551.0000	145.145
551.5000	143.692
552.0000	142.713
552.5000	141.456
553.0000	139.984
553.5000	138.572
554.0000	136.751
554.5000	135.488
555.0000	134.505
555.5000	133.3
556.0000	132.175
556.5000	130.963
557.0000	130.07
557.5000	128.679
558.0000	127.952
558.5000	127.353
559.0000	125.857
559.5000	124.879
560.0000	123.912
560.5000	122.636
561.0000	121.374
561.5000	120.408
562.0000	119.529
562.5000	118.304
563.0000	117.444
563.5000	116.387
564.0000	115.558
564.5000	114.594
565.0000	113.446
565.5000	112.264
566.0000	111.012
566.5000	110.118
567.0000	108.818
567.5000	107.926
568.0000	106.714
568.5000	105.754
569.0000	104.94
569.5000	103.942
570.0000	102.625
570.5000	101.205
571.0000	100.34
571.5000	99.0994
572.0000	98.1803
572.5000	96.9723
573.0000	96.0179
573.5000	94.8576
574.0000	93.6605
574.5000	92.6318
575.0000	90.9727
575.5000	89.8294
576.0000	88.8748
576.5000	87.9313
577.0000	87.0484
577.5000	85.8797
578.0000	84.6753
578.5000	83.8024
579.0000	82.2469
579.5000	81.0396
580.0000	80.0268
580.5000	79.1088
581.0000	78.1768
581.5000	76.9246
582.0000	75.8171
582.5000	74.8489
583.0000	74.123
583.5000	73.0513
584.0000	71.9797
584.5000	70.8761
585.0000	69.8408
585.5000	68.9846
586.0000	68.0458
586.5000	67.1889
587.0000	66.1461
587.5000	65.2698
588.0000	64.4201
588.5000	63.7147
589.0000	62.5632
589.5000	61.7794
590.0000	61.0873
590.5000	60.2028
591.0000	59.274
591.5000	58.6267
592.0000	57.5363
592.5000	56.6752
593.0000	55.8535
593.5000	55.1409
594.0000	54.3645
594.5000	53.8052
595.0000	52.9123
595.5000	52.3092
596.0000	51.7427
596.5000	50.955
597.0000	50.3073
597.5000	49.4356
598.0000	48.7675
598.5000	48.3173
599.0000	47.6167
599.5000	46.9302
600.0000	46.3815
600.5000	45.6217
601.0000	45.0685
601.5000	44.5153
602.0000	43.9157
602.5000	43.3902
603.0000	42.8744
603.5000	42.1734
604.0000	41.7688
604.5000	41.0997
605.0000	40.5536
605.5000	39.8885
606.0000	39.3189
606.5000	38.9923
607.0000	38.5838
607.5000	38.0197
608.0000	37.5144
608.5000	36.9709
609.0000	36.5235
609.5000	35.9613
610.0000	35.698
610.5000	34.972
611.0000	34.3653
611.5000	33.9749
612.0000	33.6037
612.5000	33.1617
613.0000	32.6247
613.5000	32.1123
614.0000	31.8637
614.5000	31.3105
615.0000	30.8595
615.5000	30.6558
616.0000	30.1681
616.5000	29.6838
617.0000	29.087
617.5000	28.9978
618.0000	28.5326
618.5000	28.1863
619.0000	27.5592
619.5000	27.4296
620.0000	26.7883
620.5000	26.6429
621.0000	26.218
621.5000	25.7003
622.0000	25.2941
622.5000	24.9554
623.0000	24.7393
623.5000	24.3317
624.0000	23.9228
624.5000	23.6838
625.0000	23.3508
625.5000	22.9913
626.0000	22.5752
626.5000	22.2293
627.0000	21.9413
627.5000	21.4996
628.0000	21.2351
628.5000	20.9338
629.0000	20.5601
629.5000	20.2768
630.0000	20.0984
630.5000	19.9058
631.0000	19.4358
631.5000	19.0624
632.0000	19.0136
632.5000	18.7028
633.0000	18.4176
633.5000	18.087
634.0000	17.9369
634.5000	17.5108
635.0000	17.2927
635.5000	17.0768
636.0000	16.8516
636.5000	16.4874
637.0000	16.2327
637.5000	15.9975
638.0000	15.8343
638.5000	15.7206
639.0000	15.3424
639.5000	15.0703
640.0000	14.9067
640.5000	14.7072
641.0000	14.4219
641.5000	14.1862
642.0000	13.9207
642.5000	13.6612
643.0000	13.4474
643.5000	13.282
644.0000	13.0773
644.5000	12.9077
645.0000	12.6717
645.5000	12.5864
646.0000	12.3795
646.5000	12.1465
647.0000	12.0235
647.5000	11.7889
648.0000	11.5697
648.5000	11.3806
649.0000	11.2833
649.5000	11.0631
650.0000	10.8898
650.5000	10.6749
651.0000	10.5287
651.5000	10.3486
652.0000	10.0907
652.5000	9.91617
653.0000	9.75115
653.5000	9.6129
654.0000	9.51006
654.5000	9.45213
655.0000	9.41026
655.5000	9.22476
656.0000	9.00058
656.5000	8.84291
657.0000	8.66512
657.5000	8.61397
658.0000	8.39675
658.5000	8.20974
659.0000	8.13089
659.5000	8.07003
660.0000	7.90512
660.5000	7.72476
661.0000	7.66816
661.5000	7.53246
662.0000	7.46109
662.5000	7.35652
663.0000	7.33078
663.5000	7.17781
664.0000	6.94411
664.5000	6.87947
665.0000	6.76955
665.5000	6.7411
666.0000	6.65008
666.5000	6.48886
667.0000	6.40932
667.5000	6.33375
668.0000	6.13642
668.5000	6.05525
669.0000	5.9887
669.5000	5.84534
670.0000	5.70533
670.5000	5.63061
671.0000	5.60324
671.5000	5.49968
672.0000	5.39177
672.5000	5.30722
673.0000	5.26377
673.5000	5.21309
674.0000	5.10724
674.5000	5.01676
675.0000	4.99912
675.5000	4.94066
676.0000	4.87829
676.5000	4.77327
677.0000	4.70753
677.5000	4.60682
678.0000	4.53027
678.5000	4.4761
679.0000	4.48619
679.5000	4.32457
680.0000	4.21209
680.5000	4.15983
681.0000	4.08871
681.5000	4.01142
682.0000	3.91954
682.5000	3.87057
683.0000	3.8884
683.5000	3.85828
684.0000	3.81769
684.5000	3.7156
685.0000	3.6107
685.5000	3.55283
686.0000	3.54411
686.5000	3.4971
687.0000	3.40045
687.5000	3.3637
688.0000	3.29324
688.5000	3.24507
689.0000	3.2482
689.5000	3.16693
690.0000	3.13557
690.5000	3.09332
691.0000	2.95957
691.5000	2.97322
692.0000	2.92671
692.5000	2.90623
693.0000	2.89499
693.5000	2.81475
694.0000	2.78138
694.5000	2.72754
695.0000	2.63377
695.5000	2.58748
696.0000	2.59131
696.5000	2.53713
697.0000	2.56145
697.5000	2.5594
698.0000	2.4169
698.5000	2.39393
699.0000	2.36391
699.5000	2.28275
700.0000	2.26233

##### Extended Information
[コメント情報]
試料名
コメント
測定者
所属
会社	関西大学

[データ情報]
作成日時	2025/02/07 11:26

データタイプ	等間隔データ
横軸	Wavelength [nm]
縦軸	Int.
スタート	421 nm
エンド	700 nm
データ間隔	0.5 nm
データ数	559     

[測定情報]
機種名	FP-8300
シリアル番号	C037361450
  Ex側フォルダ	なし
  Em側フォルダ	なし

付属品名	SCE-846
付属品シリアルNo.	C037361450

測定日時	2025/02/07 11:26

測定モード	蛍光
励起側バンド幅	5 nm
蛍光側バンド幅	5 nm
レスポンス	0.1 sec
感度	Low
測定範囲	421 - 700 nm
データ取込間隔	0.5 nm
励起波長	421.0 nm
走査速度	500 nm/min
オートゲイン	Off
自動シャッタ制御	測定時のみ開く
光源	キセノンランプ
フィルタ	交換時にスキャンを停止する
ブランク補正	Off

