TITLE	
DATA TYPE	FLUORESCENCE SPECTRUM
ORIGIN	JASCO
OWNER	
DATE	25/04/13
TIME	19:06:26
SPECTROMETER/DATA SYSTEM	
LOCALE	1041
RESOLUTION	
DELTAX	0.5
XUNITS	NANOMETERS
YUNITS	INTENSITY
FIRSTX	  422.0000
LASTX	  700.0000
NPOINTS	     557
FIRSTY	   107.31100
MAXY	  1685.95154
MINY	     3.03799
XYDATA
422.0000	107.311
422.5000	92.9965
423.0000	77.7686
423.5000	62.0195
424.0000	47.7147
424.5000	35.3574
425.0000	25.2734
425.5000	17.655
426.0000	12.3911
426.5000	8.63991
427.0000	6.52425
427.5000	5.38674
428.0000	4.92506
428.5000	4.8668
429.0000	4.9553
429.5000	5.22287
430.0000	5.47997
430.5000	5.88614
431.0000	6.38556
431.5000	6.97819
432.0000	7.64904
432.5000	8.38124
433.0000	9.18717
433.5000	10.2915
434.0000	11.5416
434.5000	12.9661
435.0000	14.7197
435.5000	16.7927
436.0000	19.4655
436.5000	22.4392
437.0000	25.7106
437.5000	29.8253
438.0000	34.4495
438.5000	39.9464
439.0000	46.55
439.5000	53.8206
440.0000	62.1326
440.5000	71.8247
441.0000	83.6033
441.5000	97.1423
442.0000	112.027
442.5000	128.925
443.0000	148.577
443.5000	170.282
444.0000	196.09
444.5000	225.018
445.0000	257.09
445.5000	293.643
446.0000	335.035
446.5000	380.567
447.0000	431.182
447.5000	487.633
448.0000	548.046
448.5000	613.634
449.0000	684.191
449.5000	758.516
450.0000	835.761
450.5000	913.31
451.0000	993.733
451.5000	1073.38
452.0000	1153.43
452.5000	1231.08
453.0000	1301.7
453.5000	1368.15
454.0000	1431.86
454.5000	1488.62
455.0000	1539.58
455.5000	1580.58
456.0000	1613.88
456.5000	1641.76
457.0000	1662.23
457.5000	1676.29
458.0000	1684.1
458.5000	1685.95
459.0000	1681.69
459.5000	1673.54
460.0000	1662.09
460.5000	1645.86
461.0000	1624.44
461.5000	1600.8
462.0000	1574.57
462.5000	1547.32
463.0000	1516.58
463.5000	1483.11
464.0000	1450.21
464.5000	1415.82
465.0000	1382.13
465.5000	1347.15
466.0000	1311.27
466.5000	1273.33
467.0000	1237.13
467.5000	1203.93
468.0000	1169.23
468.5000	1135.91
469.0000	1103.22
469.5000	1070.72
470.0000	1041.16
470.5000	1013.64
471.0000	987.481
471.5000	962.738
472.0000	939.959
472.5000	919.482
473.0000	901.514
473.5000	886.522
474.0000	873.163
474.5000	862.594
475.0000	855.804
475.5000	850.935
476.0000	847.905
476.5000	849.043
477.0000	853.479
477.5000	859.608
478.0000	869.039
478.5000	879.417
479.0000	894.079
479.5000	910.2
480.0000	926.596
480.5000	943.455
481.0000	963.463
481.5000	984.34
482.0000	1003.47
482.5000	1022
483.0000	1041.59
483.5000	1060.41
484.0000	1078.47
484.5000	1095.54
485.0000	1109.81
485.5000	1122.7
486.0000	1134.03
486.5000	1143.04
487.0000	1151.13
487.5000	1157.43
488.0000	1160.11
488.5000	1161.62
489.0000	1159.89
489.5000	1155.11
490.0000	1146.72
490.5000	1136.54
491.0000	1124.15
491.5000	1108.47
492.0000	1091.71
492.5000	1071.46
493.0000	1049.15
493.5000	1024.44
494.0000	997.357
494.5000	970.945
495.0000	942.735
495.5000	913.357
496.0000	885.431
496.5000	856.496
497.0000	827.553
497.5000	798.747
498.0000	770.662
498.5000	743.089
499.0000	716.969
499.5000	690.942
500.0000	666.727
500.5000	643.739
501.0000	620.581
501.5000	597.24
502.0000	576.582
502.5000	558.233
503.0000	540.234
503.5000	522.261
504.0000	505.59
504.5000	490.837
505.0000	476.964
505.5000	464.264
506.0000	451.709
506.5000	440.6
507.0000	430.49
507.5000	422.087
508.0000	413.847
508.5000	405.932
509.0000	398.837
509.5000	393.862
510.0000	387.964
510.5000	383.111
511.0000	378.813
511.5000	374.373
512.0000	371.877
512.5000	369.713
513.0000	367.533
513.5000	366.031
514.0000	364.099
514.5000	362.911
515.0000	362.034
515.5000	361.91
516.0000	361.015
516.5000	360.546
517.0000	361.675
517.5000	361.901
518.0000	361.254
518.5000	362.247
519.0000	363.261
519.5000	363.114
520.0000	363.231
520.5000	364.268
521.0000	364.32
521.5000	364.542
522.0000	364.472
522.5000	364.779
523.0000	365.078
523.5000	365.604
524.0000	365.613
524.5000	366.021
525.0000	365.622
525.5000	364.582
526.0000	364.456
526.5000	363.897
527.0000	362.583
527.5000	361.577
528.0000	360.632
528.5000	359.549
529.0000	357.237
529.5000	355.877
530.0000	354.788
530.5000	351.903
531.0000	348.747
531.5000	346.41
532.0000	343.044
532.5000	340.07
533.0000	337.294
533.5000	334.028
534.0000	330.949
534.5000	326.902
535.0000	323.022
535.5000	319.551
536.0000	315.846
536.5000	312.429
537.0000	308.349
537.5000	303.645
538.0000	299.435
538.5000	296.167
539.0000	292.577
539.5000	287.865
540.0000	284.204
540.5000	278.512
541.0000	274.266
541.5000	270.746
542.0000	266.851
542.5000	262.52
543.0000	259.308
543.5000	255.144
544.0000	251.369
544.5000	247.309
545.0000	244.004
545.5000	240.538
546.0000	237.351
546.5000	234.448
547.0000	230.993
547.5000	227.949
548.0000	224.557
548.5000	221.988
549.0000	219.128
549.5000	216.803
550.0000	214.208
550.5000	211.029
551.0000	208.834
551.5000	206.287
552.0000	203.732
552.5000	201.373
553.0000	199.7
553.5000	197.572
554.0000	194.951
554.5000	193.238
555.0000	191.351
555.5000	189.02
556.0000	187.434
556.5000	185.37
557.0000	183.904
557.5000	182.137
558.0000	180.121
558.5000	178.364
559.0000	176.87
559.5000	175.497
560.0000	173.913
560.5000	171.811
561.0000	170.068
561.5000	168.599
562.0000	167.082
562.5000	165.989
563.0000	164.314
563.5000	162.823
564.0000	161.024
564.5000	158.804
565.0000	157.084
565.5000	156.058
566.0000	154.273
566.5000	152.616
567.0000	151.161
567.5000	149.216
568.0000	147.675
568.5000	146.269
569.0000	144.741
569.5000	143.291
570.0000	141.332
570.5000	139.676
571.0000	137.912
571.5000	136.501
572.0000	134.81
572.5000	133.268
573.0000	131.467
573.5000	129.594
574.0000	127.999
574.5000	126.286
575.0000	124.745
575.5000	123.245
576.0000	121.526
576.5000	119.839
577.0000	118.176
577.5000	116.044
578.0000	114.373
578.5000	112.702
579.0000	111.4
579.5000	109.783
580.0000	108.34
580.5000	107.081
581.0000	105.349
581.5000	103.78
582.0000	102.178
582.5000	100.797
583.0000	99.5595
583.5000	97.9074
584.0000	96.5022
584.5000	95.2126
585.0000	93.3591
585.5000	92.0934
586.0000	90.8583
586.5000	89.6244
587.0000	87.8112
587.5000	86.6251
588.0000	85.4941
588.5000	84.1158
589.0000	82.9632
589.5000	81.8049
590.0000	80.6432
590.5000	79.0823
591.0000	78.0194
591.5000	77.0942
592.0000	75.7968
592.5000	74.6909
593.0000	73.8578
593.5000	72.6488
594.0000	71.5526
594.5000	70.7346
595.0000	69.4376
595.5000	68.211
596.0000	67.272
596.5000	66.2995
597.0000	65.177
597.5000	64.4925
598.0000	63.6727
598.5000	62.7055
599.0000	61.7462
599.5000	60.8911
600.0000	60.0193
600.5000	59.1668
601.0000	58.3269
601.5000	57.5211
602.0000	56.6221
602.5000	55.7143
603.0000	54.9238
603.5000	54.2966
604.0000	53.5687
604.5000	52.9428
605.0000	52.0817
605.5000	51.2934
606.0000	50.5393
606.5000	49.9337
607.0000	49.1003
607.5000	48.3031
608.0000	47.7747
608.5000	47.1435
609.0000	46.4674
609.5000	45.8404
610.0000	45.1998
610.5000	44.5089
611.0000	43.9392
611.5000	43.3597
612.0000	42.6977
612.5000	42.078
613.0000	41.5861
613.5000	41.0338
614.0000	40.3784
614.5000	39.6401
615.0000	38.9588
615.5000	38.7523
616.0000	38.1715
616.5000	37.4036
617.0000	37.0115
617.5000	36.5287
618.0000	35.824
618.5000	35.4558
619.0000	34.9952
619.5000	34.5726
620.0000	33.9418
620.5000	33.6519
621.0000	33.0679
621.5000	32.4671
622.0000	31.8551
622.5000	31.4142
623.0000	31.0232
623.5000	30.682
624.0000	30.2104
624.5000	29.5763
625.0000	29.1632
625.5000	28.7877
626.0000	28.5113
626.5000	28.0247
627.0000	27.5461
627.5000	27.0749
628.0000	26.6644
628.5000	26.4873
629.0000	26.0588
629.5000	25.4224
630.0000	25.0683
630.5000	24.7805
631.0000	24.422
631.5000	24.289
632.0000	23.6685
632.5000	23.1895
633.0000	22.8508
633.5000	22.443
634.0000	22.1477
634.5000	21.8445
635.0000	21.3842
635.5000	21.0295
636.0000	20.8955
636.5000	20.6551
637.0000	20.1547
637.5000	19.8888
638.0000	19.4795
638.5000	19.2907
639.0000	19.0609
639.5000	18.7259
640.0000	18.4471
640.5000	18.1719
641.0000	17.8049
641.5000	17.5992
642.0000	17.3495
642.5000	17.0227
643.0000	16.8576
643.5000	16.4942
644.0000	16.3419
644.5000	16.1376
645.0000	15.799
645.5000	15.4908
646.0000	15.3597
646.5000	15.0347
647.0000	14.7301
647.5000	14.601
648.0000	14.4352
648.5000	14.2569
649.0000	13.9054
649.5000	13.6478
650.0000	13.4522
650.5000	13.1979
651.0000	13.117
651.5000	12.9234
652.0000	12.7799
652.5000	12.4083
653.0000	12.3164
653.5000	12.234
654.0000	11.9513
654.5000	11.6822
655.0000	11.6628
655.5000	11.3981
656.0000	11.2494
656.5000	11.0161
657.0000	10.8299
657.5000	10.6702
658.0000	10.6174
658.5000	10.4339
659.0000	10.1985
659.5000	10.0591
660.0000	10.0011
660.5000	9.75382
661.0000	9.63001
661.5000	9.45567
662.0000	9.29045
662.5000	9.15439
663.0000	9.0076
663.5000	9.00868
664.0000	8.88316
664.5000	8.60212
665.0000	8.45824
665.5000	8.37937
666.0000	8.19076
666.5000	8.05323
667.0000	8.00155
667.5000	7.91251
668.0000	7.72462
668.5000	7.66927
669.0000	7.4865
669.5000	7.33455
670.0000	7.32085
670.5000	7.21333
671.0000	7.12061
671.5000	6.94839
672.0000	6.81161
672.5000	6.72507
673.0000	6.65529
673.5000	6.55715
674.0000	6.47447
674.5000	6.38377
675.0000	6.28061
675.5000	6.2266
676.0000	6.17105
676.5000	5.97443
677.0000	5.93161
677.5000	5.87784
678.0000	5.75831
678.5000	5.59004
679.0000	5.53359
679.5000	5.46543
680.0000	5.38879
680.5000	5.27531
681.0000	5.25625
681.5000	5.22208
682.0000	5.0904
682.5000	5.04448
683.0000	4.89738
683.5000	4.87036
684.0000	4.79778
684.5000	4.70595
685.0000	4.72694
685.5000	4.62796
686.0000	4.53076
686.5000	4.45162
687.0000	4.40485
687.5000	4.33035
688.0000	4.34577
688.5000	4.29693
689.0000	4.13228
689.5000	4.02813
690.0000	4.05906
690.5000	3.9277
691.0000	3.84863
691.5000	3.80346
692.0000	3.81466
692.5000	3.79982
693.0000	3.70809
693.5000	3.60573
694.0000	3.51265
694.5000	3.51714
695.0000	3.48064
695.5000	3.44523
696.0000	3.44242
696.5000	3.38892
697.0000	3.33004
697.5000	3.2432
698.0000	3.18907
698.5000	3.14042
699.0000	3.13314
699.5000	3.14125
700.0000	3.03799

##### Extended Information
[コメント情報]
試料名
コメント
測定者
所属
会社	関西大学

[データ情報]
作成日時	2025/04/13 19:06

データタイプ	等間隔データ
横軸	Wavelength [nm]
縦軸	Int.
スタート	422 nm
エンド	700 nm
データ間隔	0.5 nm
データ数	557     

[測定情報]
機種名	FP-8300
シリアル番号	C037361450
  Ex側フォルダ	なし
  Em側フォルダ	なし

付属品名	SCE-846
付属品シリアルNo.	C037361450

測定日時	2025/04/13 19:06

測定モード	蛍光
励起側バンド幅	5 nm
蛍光側バンド幅	5 nm
レスポンス	0.1 sec
感度	Low
測定範囲	422 - 700 nm
データ取込間隔	0.5 nm
励起波長	422.0 nm
走査速度	500 nm/min
オートゲイン	Off
自動シャッタ制御	測定時のみ開く
光源	キセノンランプ
フィルタ	交換時にスキャンを停止する
ブランク補正	Off

