TITLE	
DATA TYPE	FLUORESCENCE SPECTRUM
ORIGIN	JASCO
OWNER	
DATE	25/03/31
TIME	12:11:14
SPECTROMETER/DATA SYSTEM	
LOCALE	1041
RESOLUTION	
DELTAX	0.5
XUNITS	NANOMETERS
YUNITS	INTENSITY
FIRSTX	  422.0000
LASTX	  700.0000
NPOINTS	     557
FIRSTY	   167.14746
MAXY	  1716.00476
MINY	     3.86422
XYDATA
422.0000	167.147
422.5000	145.085
423.0000	120.785
423.5000	96.3859
424.0000	73.5691
424.5000	53.7961
425.0000	37.3367
425.5000	25.3884
426.0000	17.0735
426.5000	11.3392
427.0000	8.02664
427.5000	6.23462
428.0000	5.32273
428.5000	5.07898
429.0000	5.17229
429.5000	5.39333
430.0000	5.7719
430.5000	6.28687
431.0000	6.74873
431.5000	7.42506
432.0000	8.14127
432.5000	8.97766
433.0000	9.94723
433.5000	11.1496
434.0000	12.4527
434.5000	14.1177
435.0000	16.0545
435.5000	18.3046
436.0000	21.2507
436.5000	24.4842
437.0000	28.1434
437.5000	32.5949
438.0000	37.8332
438.5000	43.8682
439.0000	51.1415
439.5000	59.0747
440.0000	68.4001
440.5000	79.253
441.0000	91.3559
441.5000	105.999
442.0000	122.572
442.5000	141.002
443.0000	161.629
443.5000	185.135
444.0000	212.891
444.5000	244.01
445.0000	278.942
445.5000	317.439
446.0000	360.562
446.5000	408.747
447.0000	462.814
447.5000	521.925
448.0000	584.485
448.5000	652.603
449.0000	725.27
449.5000	801.158
450.0000	879.873
450.5000	959.288
451.0000	1040.39
451.5000	1119.72
452.0000	1198.2
452.5000	1275.66
453.0000	1347.24
453.5000	1412.42
454.0000	1473.47
454.5000	1528.41
455.0000	1575.83
455.5000	1616.81
456.0000	1649.27
456.5000	1675.07
457.0000	1696.54
457.5000	1709.11
458.0000	1714.42
458.5000	1716
459.0000	1711.3
459.5000	1703.3
460.0000	1690.18
460.5000	1672.68
461.0000	1650.74
461.5000	1626.69
462.0000	1598.88
462.5000	1569.77
463.0000	1537.36
463.5000	1503.94
464.0000	1469.74
464.5000	1435.82
465.0000	1399.4
465.5000	1362.04
466.0000	1324.6
466.5000	1288.87
467.0000	1251.38
467.5000	1215.97
468.0000	1181.31
468.5000	1145.34
469.0000	1111.88
469.5000	1081.79
470.0000	1052.29
470.5000	1023.53
471.0000	997.858
471.5000	973.027
472.0000	951.465
472.5000	930.707
473.0000	912.924
473.5000	897.953
474.0000	886.138
474.5000	878.079
475.0000	872.498
475.5000	868.173
476.0000	867.116
476.5000	868.579
477.0000	874.68
477.5000	882.75
478.0000	893.806
478.5000	905.849
479.0000	921.6
479.5000	938.088
480.0000	955.37
480.5000	974.602
481.0000	994.461
481.5000	1014.62
482.0000	1035.31
482.5000	1056.07
483.0000	1076.13
483.5000	1094.63
484.0000	1111.83
484.5000	1128.1
485.0000	1143.52
485.5000	1155.64
486.0000	1166.1
486.5000	1176.37
487.0000	1184.52
487.5000	1190.04
488.0000	1191.32
488.5000	1191.44
489.0000	1188.11
489.5000	1184.38
490.0000	1176.47
490.5000	1165.84
491.0000	1152.41
491.5000	1135.69
492.0000	1117.49
492.5000	1095.85
493.0000	1072.39
493.5000	1046.1
494.0000	1019.35
494.5000	992.315
495.0000	963.526
495.5000	934.86
496.0000	905.394
496.5000	874.567
497.0000	845.665
497.5000	817.497
498.0000	787.948
498.5000	759.97
499.0000	732.919
499.5000	706.671
500.0000	682.749
500.5000	657.658
501.0000	634.06
501.5000	611.835
502.0000	590.765
502.5000	571.885
503.0000	553.533
503.5000	535.313
504.0000	519.561
504.5000	503.931
505.0000	490.31
505.5000	477.63
506.0000	465.659
506.5000	455.171
507.0000	445.281
507.5000	436.066
508.0000	428.054
508.5000	421.71
509.0000	415.138
509.5000	409.14
510.0000	403.899
510.5000	399.025
511.0000	395.133
511.5000	392.901
512.0000	390.252
512.5000	387.802
513.0000	385.981
513.5000	384.721
514.0000	384.219
514.5000	383.465
515.0000	383.896
515.5000	383.533
516.0000	383.246
516.5000	384.3
517.0000	384.461
517.5000	384.851
518.0000	385.05
518.5000	386.23
519.0000	388.304
519.5000	389.363
520.0000	389.681
520.5000	390.485
521.0000	391.553
521.5000	392.434
522.0000	394.144
522.5000	394.204
523.0000	394.849
523.5000	395.427
524.0000	395.54
524.5000	395.772
525.0000	396.409
525.5000	396.622
526.0000	395.93
526.5000	395.708
527.0000	395.069
527.5000	394.7
528.0000	393.117
528.5000	391.785
529.0000	390.722
529.5000	389.098
530.0000	387.346
530.5000	384.85
531.0000	382.638
531.5000	380.221
532.0000	377.786
532.5000	375.543
533.0000	371.915
533.5000	368.135
534.0000	364.926
534.5000	361.714
535.0000	357.693
535.5000	354.529
536.0000	351.285
536.5000	346.908
537.0000	343.305
537.5000	338.466
538.0000	334.508
538.5000	330.26
539.0000	326.249
539.5000	322.235
540.0000	318.266
540.5000	313.81
541.0000	309.56
541.5000	305.433
542.0000	300.997
542.5000	296.932
543.0000	293.111
543.5000	288.776
544.0000	285.493
544.5000	281.962
545.0000	278.089
545.5000	274.569
546.0000	271.596
546.5000	268.927
547.0000	265.159
547.5000	261.911
548.0000	258.836
548.5000	255.916
549.0000	253.049
549.5000	250.127
550.0000	247.399
550.5000	244.233
551.0000	242.008
551.5000	239.35
552.0000	236.851
552.5000	234.358
553.0000	231.891
553.5000	229.544
554.0000	227.732
554.5000	225.88
555.0000	223.368
555.5000	220.729
556.0000	218.894
556.5000	217.055
557.0000	215.194
557.5000	213.713
558.0000	211.664
558.5000	209.614
559.0000	207.974
559.5000	206.812
560.0000	204.758
560.5000	202.745
561.0000	200.911
561.5000	199.251
562.0000	197.834
562.5000	196.394
563.0000	194.087
563.5000	192.276
564.0000	190.387
564.5000	188.435
565.0000	186.995
565.5000	185.41
566.0000	183.556
566.5000	181.568
567.0000	179.897
567.5000	178.267
568.0000	176.034
568.5000	174.059
569.0000	172.891
569.5000	170.639
570.0000	168.8
570.5000	166.97
571.0000	165.101
571.5000	163.997
572.0000	162.082
572.5000	159.745
573.0000	158.047
573.5000	156.123
574.0000	154.383
574.5000	152.041
575.0000	149.915
575.5000	148.973
576.0000	147.07
576.5000	144.908
577.0000	143.059
577.5000	141.316
578.0000	139.725
578.5000	137.948
579.0000	136.06
579.5000	134.477
580.0000	132.732
580.5000	130.765
581.0000	129.351
581.5000	127.214
582.0000	125.51
582.5000	123.841
583.0000	122.256
583.5000	120.692
584.0000	118.995
584.5000	117.85
585.0000	116.091
585.5000	114.29
586.0000	112.724
586.5000	111.28
587.0000	109.855
587.5000	108.034
588.0000	106.705
588.5000	105.198
589.0000	103.676
589.5000	102.392
590.0000	100.885
590.5000	99.5589
591.0000	98.3544
591.5000	96.7744
592.0000	95.6746
592.5000	94.1035
593.0000	93.3575
593.5000	92.0518
594.0000	90.9367
594.5000	89.6538
595.0000	88.1567
595.5000	86.7681
596.0000	85.5934
596.5000	84.7628
597.0000	83.4975
597.5000	82.3822
598.0000	81.2386
598.5000	80.141
599.0000	79.4701
599.5000	78.499
600.0000	77.4379
600.5000	76.3456
601.0000	75.4789
601.5000	74.3868
602.0000	73.0747
602.5000	72.2395
603.0000	71.2495
603.5000	70.8384
604.0000	70.102
604.5000	68.8416
605.0000	67.8136
605.5000	67.0948
606.0000	66.2781
606.5000	65.529
607.0000	64.6887
607.5000	63.7262
608.0000	62.8694
608.5000	62.1935
609.0000	61.4306
609.5000	60.3578
610.0000	59.5734
610.5000	58.8498
611.0000	58.1543
611.5000	57.4459
612.0000	56.6588
612.5000	56.0631
613.0000	55.2837
613.5000	54.2122
614.0000	53.6194
614.5000	53.0885
615.0000	52.4029
615.5000	51.5908
616.0000	50.8466
616.5000	50.0939
617.0000	49.3525
617.5000	48.8245
618.0000	48.2072
618.5000	47.5898
619.0000	46.9567
619.5000	46.1624
620.0000	45.4317
620.5000	44.7231
621.0000	44.1335
621.5000	43.7295
622.0000	43.133
622.5000	42.5716
623.0000	41.5945
623.5000	41.0726
624.0000	40.703
624.5000	40.2259
625.0000	39.3354
625.5000	39.1386
626.0000	38.3274
626.5000	37.8495
627.0000	37.3166
627.5000	36.7253
628.0000	36.2261
628.5000	35.8429
629.0000	35.2839
629.5000	34.7801
630.0000	34.2216
630.5000	33.7198
631.0000	33.2577
631.5000	33.0111
632.0000	32.3707
632.5000	31.9622
633.0000	31.3122
633.5000	30.776
634.0000	30.3987
634.5000	29.866
635.0000	29.6007
635.5000	29.2469
636.0000	28.5805
636.5000	28.1655
637.0000	27.8082
637.5000	27.5885
638.0000	26.8822
638.5000	26.5461
639.0000	26.1488
639.5000	25.9719
640.0000	25.3668
640.5000	24.9931
641.0000	24.7362
641.5000	24.2008
642.0000	23.8923
642.5000	23.5054
643.0000	23.2535
643.5000	22.7362
644.0000	22.374
644.5000	22.1285
645.0000	21.7499
645.5000	21.3243
646.0000	20.9284
646.5000	20.8602
647.0000	20.5363
647.5000	20.1741
648.0000	19.8869
648.5000	19.5108
649.0000	19.2481
649.5000	19.1007
650.0000	18.7428
650.5000	18.4779
651.0000	18.0722
651.5000	17.7756
652.0000	17.6098
652.5000	17.2037
653.0000	16.867
653.5000	16.6441
654.0000	16.5732
654.5000	16.2887
655.0000	16.0387
655.5000	15.9131
656.0000	15.6411
656.5000	15.2838
657.0000	15.1663
657.5000	14.8218
658.0000	14.581
658.5000	14.4467
659.0000	14.2047
659.5000	13.9114
660.0000	13.7529
660.5000	13.5985
661.0000	13.3294
661.5000	13.0679
662.0000	13.0558
662.5000	12.8555
663.0000	12.6223
663.5000	12.3466
664.0000	12.1349
664.5000	11.9553
665.0000	11.8183
665.5000	11.6072
666.0000	11.4065
666.5000	11.2989
667.0000	11.0192
667.5000	10.7743
668.0000	10.733
668.5000	10.49
669.0000	10.2327
669.5000	10.0854
670.0000	9.93453
670.5000	9.87722
671.0000	9.65929
671.5000	9.55832
672.0000	9.44993
672.5000	9.25509
673.0000	9.1305
673.5000	8.99388
674.0000	8.88552
674.5000	8.64411
675.0000	8.54867
675.5000	8.46201
676.0000	8.29807
676.5000	8.24727
677.0000	8.10166
677.5000	7.88495
678.0000	7.62466
678.5000	7.64675
679.0000	7.59273
679.5000	7.44349
680.0000	7.33697
680.5000	7.23399
681.0000	7.12426
681.5000	7.063
682.0000	6.89907
682.5000	6.81758
683.0000	6.59312
683.5000	6.54482
684.0000	6.45922
684.5000	6.2848
685.0000	6.22295
685.5000	6.06478
686.0000	6.07952
686.5000	6.05535
687.0000	5.96397
687.5000	5.90627
688.0000	5.75296
688.5000	5.63724
689.0000	5.56916
689.5000	5.43895
690.0000	5.36301
690.5000	5.28105
691.0000	5.14909
691.5000	5.02909
692.0000	5.03833
692.5000	4.91277
693.0000	4.76252
693.5000	4.77976
694.0000	4.74217
694.5000	4.63467
695.0000	4.57443
695.5000	4.5667
696.0000	4.45509
696.5000	4.38303
697.0000	4.42277
697.5000	4.27697
698.0000	4.21608
698.5000	4.19475
699.0000	4.06837
699.5000	3.95379
700.0000	3.86422

##### Extended Information
[コメント情報]
試料名
コメント
測定者
所属
会社	関西大学

[データ情報]
作成日時	2025/03/31 12:11

データタイプ	等間隔データ
横軸	Wavelength [nm]
縦軸	Int.
スタート	422 nm
エンド	700 nm
データ間隔	0.5 nm
データ数	557     

[測定情報]
機種名	FP-8300
シリアル番号	C037361450
  Ex側フォルダ	なし
  Em側フォルダ	なし

付属品名	SCE-846
付属品シリアルNo.	C037361450

測定日時	2025/03/31 12:11

測定モード	蛍光
励起側バンド幅	5 nm
蛍光側バンド幅	5 nm
レスポンス	0.1 sec
感度	Low
測定範囲	422 - 700 nm
データ取込間隔	0.5 nm
励起波長	422.0 nm
走査速度	500 nm/min
オートゲイン	Off
自動シャッタ制御	測定時のみ開く
光源	キセノンランプ
フィルタ	交換時にスキャンを停止する
ブランク補正	Off

