TITLE	
DATA TYPE	FLUORESCENCE SPECTRUM
ORIGIN	JASCO
OWNER	
DATE	25/04/16
TIME	22:04:51
SPECTROMETER/DATA SYSTEM	
LOCALE	1041
RESOLUTION	
DELTAX	0.5
XUNITS	NANOMETERS
YUNITS	INTENSITY
FIRSTX	  422.0000
LASTX	  700.0000
NPOINTS	     557
FIRSTY	    57.53964
MAXY	  1177.96448
MINY	     2.55665
XYDATA
422.0000	57.5396
422.5000	51.0216
423.0000	43.747
423.5000	35.9324
424.0000	28.3494
424.5000	21.4645
425.0000	15.5927
425.5000	11.2956
426.0000	8.13637
426.5000	5.85575
427.0000	4.51174
427.5000	3.65701
428.0000	3.25351
428.5000	3.14054
429.0000	3.24001
429.5000	3.3992
430.0000	3.60351
430.5000	3.93219
431.0000	4.29123
431.5000	4.68628
432.0000	5.08936
432.5000	5.62046
433.0000	6.29163
433.5000	7.05631
434.0000	8.03907
434.5000	9.1242
435.0000	10.3849
435.5000	11.9171
436.0000	13.7522
436.5000	15.7762
437.0000	18.1027
437.5000	21.0376
438.0000	24.5639
438.5000	28.6123
439.0000	33.3206
439.5000	38.7202
440.0000	44.7341
440.5000	51.9778
441.0000	60.3374
441.5000	69.6747
442.0000	80.6614
442.5000	92.7626
443.0000	106.548
443.5000	122.447
444.0000	141.128
444.5000	161.951
445.0000	184.675
445.5000	210.685
446.0000	240.582
446.5000	273.467
447.0000	310.843
447.5000	351.996
448.0000	394.998
448.5000	442.36
449.0000	492.928
449.5000	545.761
450.0000	601.777
450.5000	658.657
451.0000	716.067
451.5000	772.571
452.0000	828.403
452.5000	882.028
453.0000	932.681
453.5000	979.712
454.0000	1022.63
454.5000	1060.66
455.0000	1093.59
455.5000	1120.01
456.0000	1141.1
456.5000	1157.25
457.0000	1169.55
457.5000	1175.82
458.0000	1177.96
458.5000	1176.05
459.0000	1170.51
459.5000	1162.3
460.0000	1151.12
460.5000	1136.88
461.0000	1120.17
461.5000	1101.58
462.0000	1081.22
462.5000	1059.25
463.0000	1036.34
463.5000	1011.96
464.0000	986.956
464.5000	961.714
465.0000	935.872
465.5000	910.278
466.0000	882.747
466.5000	858.295
467.0000	831.995
467.5000	805.397
468.0000	780.526
468.5000	757.17
469.0000	734.987
469.5000	713.281
470.0000	692.686
470.5000	672.821
471.0000	654.718
471.5000	638.422
472.0000	624.154
472.5000	610.382
473.0000	598.271
473.5000	588.761
474.0000	581.215
474.5000	575.43
475.0000	571.183
475.5000	569.491
476.0000	570.391
476.5000	572.139
477.0000	576.704
477.5000	582.222
478.0000	589.492
478.5000	599.218
479.0000	610.493
479.5000	622.736
480.0000	635.497
480.5000	649.582
481.0000	664.601
481.5000	678.574
482.0000	693.163
482.5000	708.926
483.0000	722.7
483.5000	735.522
484.0000	747.382
484.5000	759.324
485.0000	768.892
485.5000	776.924
486.0000	784.11
486.5000	790.009
487.0000	792.469
487.5000	796.075
488.0000	796.733
488.5000	794.852
489.0000	793.819
489.5000	790.186
490.0000	783.57
490.5000	775.484
491.0000	766.325
491.5000	753.545
492.0000	740.407
492.5000	726.457
493.0000	709.674
493.5000	692.528
494.0000	673.371
494.5000	654.987
495.0000	634.54
495.5000	613.792
496.0000	593.652
496.5000	573.808
497.0000	553.372
497.5000	533.004
498.0000	513.969
498.5000	495.188
499.0000	476.649
499.5000	459.363
500.0000	442.427
500.5000	425.682
501.0000	410.065
501.5000	395.245
502.0000	381.947
502.5000	368.45
503.0000	356.483
503.5000	344.753
504.0000	334.135
504.5000	323.842
505.0000	315.144
505.5000	306.226
506.0000	298.368
506.5000	290.698
507.0000	285.043
507.5000	279.264
508.0000	273.935
508.5000	269.293
509.0000	265.853
509.5000	261.894
510.0000	258.689
510.5000	256.413
511.0000	254.22
511.5000	251.611
512.0000	250.184
512.5000	249.115
513.0000	248.426
513.5000	248.225
514.0000	247.472
514.5000	247.339
515.0000	247.689
515.5000	247.904
516.0000	248.15
516.5000	249.317
517.0000	249.782
517.5000	249.886
518.0000	250.591
518.5000	250.884
519.0000	252.167
519.5000	253.6
520.0000	253.951
520.5000	254.601
521.0000	254.936
521.5000	255.332
522.0000	256.117
522.5000	256.65
523.0000	257.148
523.5000	257.454
524.0000	257.552
524.5000	257.861
525.0000	257.704
525.5000	257.513
526.0000	257.37
526.5000	256.587
527.0000	256.5
527.5000	255.875
528.0000	255.143
528.5000	254.565
529.0000	253.997
529.5000	252.656
530.0000	251.313
530.5000	250.042
531.0000	248.32
531.5000	246.782
532.0000	245.222
532.5000	243.171
533.0000	240.761
533.5000	239.066
534.0000	236.821
534.5000	234.286
535.0000	232.09
535.5000	229.217
536.0000	226.768
536.5000	224.993
537.0000	222.245
537.5000	219.354
538.0000	216.85
538.5000	214.55
539.0000	211.707
539.5000	208.837
540.0000	206.679
540.5000	201.327
541.0000	198.942
541.5000	197.04
542.0000	194.139
542.5000	191.991
543.0000	189.553
543.5000	187.569
544.0000	185.153
544.5000	182.698
545.0000	180.266
545.5000	178.269
546.0000	176.78
546.5000	174.664
547.0000	172.621
547.5000	170.22
548.0000	168.556
548.5000	167.364
549.0000	165.537
549.5000	163.505
550.0000	161.688
550.5000	160.194
551.0000	158.591
551.5000	157.212
552.0000	155.813
552.5000	154.542
553.0000	153.296
553.5000	152.039
554.0000	150.662
554.5000	149.209
555.0000	148.117
555.5000	146.87
556.0000	145.799
556.5000	144.715
557.0000	143.214
557.5000	142.027
558.0000	141.017
558.5000	140.305
559.0000	139.213
559.5000	138
560.0000	136.969
560.5000	135.811
561.0000	134.462
561.5000	133.499
562.0000	132.533
562.5000	131.644
563.0000	130.709
563.5000	129.535
564.0000	127.98
564.5000	127.217
565.0000	126.012
565.5000	124.849
566.0000	123.82
566.5000	122.565
567.0000	121.303
567.5000	120.166
568.0000	118.936
568.5000	118.42
569.0000	116.943
569.5000	115.565
570.0000	114.808
570.5000	113.484
571.0000	112.147
571.5000	111.202
572.0000	110.122
572.5000	108.43
573.0000	107.204
573.5000	106.109
574.0000	104.936
574.5000	103.759
575.0000	102.495
575.5000	101.103
576.0000	99.9784
576.5000	98.695
577.0000	97.5622
577.5000	96.4831
578.0000	95.0571
578.5000	93.9336
579.0000	92.7786
579.5000	91.4565
580.0000	90.2733
580.5000	88.9463
581.0000	88.0035
581.5000	86.8039
582.0000	85.8639
582.5000	84.8735
583.0000	83.3755
583.5000	82.0993
584.0000	81.1281
584.5000	80.0529
585.0000	79.2155
585.5000	78.0132
586.0000	76.7048
586.5000	75.9541
587.0000	74.9107
587.5000	73.866
588.0000	72.91
588.5000	71.8415
589.0000	71.0733
589.5000	70.237
590.0000	69.3006
590.5000	68.511
591.0000	67.5701
591.5000	66.5879
592.0000	65.5641
592.5000	64.7158
593.0000	63.7663
593.5000	63.0843
594.0000	62.2879
594.5000	61.4833
595.0000	60.5972
595.5000	60.1181
596.0000	58.8247
596.5000	58.1785
597.0000	57.5894
597.5000	56.7367
598.0000	56.0995
598.5000	55.321
599.0000	54.5292
599.5000	53.9109
600.0000	53.1026
600.5000	52.1937
601.0000	51.8237
601.5000	51.1195
602.0000	50.4184
602.5000	49.7761
603.0000	49.2998
603.5000	48.8802
604.0000	48.0202
604.5000	47.3577
605.0000	46.7185
605.5000	46.2247
606.0000	45.6717
606.5000	45.2335
607.0000	44.4223
607.5000	43.7185
608.0000	43.2246
608.5000	42.4769
609.0000	42.0292
609.5000	41.5694
610.0000	41.0278
610.5000	40.2938
611.0000	39.8188
611.5000	39.4118
612.0000	38.7536
612.5000	38.155
613.0000	37.6482
613.5000	37.2384
614.0000	36.7941
614.5000	36.4421
615.0000	35.761
615.5000	35.4254
616.0000	34.8775
616.5000	34.3334
617.0000	33.7253
617.5000	33.3294
618.0000	33.0173
618.5000	32.6481
619.0000	32.2319
619.5000	31.5971
620.0000	31.1284
620.5000	30.8789
621.0000	30.2425
621.5000	29.8699
622.0000	29.505
622.5000	28.848
623.0000	28.5204
623.5000	28.3635
624.0000	27.8397
624.5000	27.4831
625.0000	26.9803
625.5000	26.4967
626.0000	26.0368
626.5000	25.8754
627.0000	25.462
627.5000	25.2322
628.0000	24.8316
628.5000	24.284
629.0000	23.8296
629.5000	23.5393
630.0000	23.1881
630.5000	22.7748
631.0000	22.4387
631.5000	22.1167
632.0000	21.9198
632.5000	21.5359
633.0000	21.371
633.5000	21.0891
634.0000	20.706
634.5000	20.3884
635.0000	20.0142
635.5000	19.807
636.0000	19.4575
636.5000	19.0722
637.0000	18.8118
637.5000	18.6126
638.0000	18.3017
638.5000	18.0552
639.0000	17.8028
639.5000	17.5501
640.0000	17.1447
640.5000	16.8712
641.0000	16.6565
641.5000	16.4897
642.0000	16.1061
642.5000	15.9707
643.0000	15.7898
643.5000	15.586
644.0000	15.1058
644.5000	14.9596
645.0000	14.7237
645.5000	14.4412
646.0000	14.2938
646.5000	14.1627
647.0000	13.9993
647.5000	13.7214
648.0000	13.4011
648.5000	13.2402
649.0000	13.1468
649.5000	12.6473
650.0000	12.4216
650.5000	12.5118
651.0000	12.4236
651.5000	12.1256
652.0000	11.8818
652.5000	11.6901
653.0000	11.5181
653.5000	11.3888
654.0000	11.2091
654.5000	10.9918
655.0000	10.7152
655.5000	10.6108
656.0000	10.3986
656.5000	10.1403
657.0000	10.0081
657.5000	10.0556
658.0000	9.87963
658.5000	9.68974
659.0000	9.42801
659.5000	9.31998
660.0000	9.26322
660.5000	9.24308
661.0000	8.93153
661.5000	8.82891
662.0000	8.6053
662.5000	8.49484
663.0000	8.31243
663.5000	8.16932
664.0000	8.08953
664.5000	8.00318
665.0000	7.98386
665.5000	7.78581
666.0000	7.59672
666.5000	7.50925
667.0000	7.3665
667.5000	7.13238
668.0000	7.09983
668.5000	6.97058
669.0000	6.90023
669.5000	6.79327
670.0000	6.65736
670.5000	6.5518
671.0000	6.46585
671.5000	6.47162
672.0000	6.28052
672.5000	6.12546
673.0000	6.04285
673.5000	6.03918
674.0000	5.92251
674.5000	5.75928
675.0000	5.70936
675.5000	5.68492
676.0000	5.52143
676.5000	5.467
677.0000	5.38233
677.5000	5.21765
678.0000	5.26552
678.5000	5.13737
679.0000	4.99816
679.5000	4.93838
680.0000	4.88093
680.5000	4.83826
681.0000	4.742
681.5000	4.56131
682.0000	4.53596
682.5000	4.48838
683.0000	4.41725
683.5000	4.36193
684.0000	4.31286
684.5000	4.24323
685.0000	4.12159
685.5000	4.08496
686.0000	3.99734
686.5000	3.93986
687.0000	3.8567
687.5000	3.88314
688.0000	3.83369
688.5000	3.69452
689.0000	3.69595
689.5000	3.63934
690.0000	3.51318
690.5000	3.51794
691.0000	3.39715
691.5000	3.36399
692.0000	3.34986
692.5000	3.23048
693.0000	3.19862
693.5000	3.15644
694.0000	3.15839
694.5000	3.10877
695.0000	3.01508
695.5000	2.95207
696.0000	2.9185
696.5000	2.85573
697.0000	2.80019
697.5000	2.77057
698.0000	2.73715
698.5000	2.70078
699.0000	2.61422
699.5000	2.59255
700.0000	2.55665

##### Extended Information
[コメント情報]
試料名
コメント
測定者
所属
会社	関西大学

[データ情報]
作成日時	2025/04/16 22:04

データタイプ	等間隔データ
横軸	Wavelength [nm]
縦軸	Int.
スタート	422 nm
エンド	700 nm
データ間隔	0.5 nm
データ数	557     

[測定情報]
機種名	FP-8300
シリアル番号	C037361450
  Ex側フォルダ	なし
  Em側フォルダ	なし

付属品名	SCE-846
付属品シリアルNo.	C037361450

測定日時	2025/04/16 22:04

測定モード	蛍光
励起側バンド幅	5 nm
蛍光側バンド幅	5 nm
レスポンス	0.1 sec
感度	Low
測定範囲	422 - 700 nm
データ取込間隔	0.5 nm
励起波長	422.0 nm
走査速度	500 nm/min
オートゲイン	Off
自動シャッタ制御	測定時のみ開く
光源	キセノンランプ
フィルタ	交換時にスキャンを停止する
ブランク補正	Off

