TITLE	
DATA TYPE	FLUORESCENCE SPECTRUM
ORIGIN	JASCO
OWNER	
DATE	25/04/16
TIME	22:53:49
SPECTROMETER/DATA SYSTEM	
LOCALE	1041
RESOLUTION	
DELTAX	0.5
XUNITS	NANOMETERS
YUNITS	INTENSITY
FIRSTX	  422.0000
LASTX	  700.0000
NPOINTS	     557
FIRSTY	    51.70382
MAXY	   890.77979
MINY	     2.12647
XYDATA
422.0000	51.7038
422.5000	43.0491
423.0000	34.2445
423.5000	26.1695
424.0000	19.2957
424.5000	13.5013
425.0000	9.04466
425.5000	6.27978
426.0000	4.55424
426.5000	3.31466
427.0000	2.68962
427.5000	2.30976
428.0000	2.13217
428.5000	2.12647
429.0000	2.2193
429.5000	2.33258
430.0000	2.51286
430.5000	2.69265
431.0000	2.85271
431.5000	3.10731
432.0000	3.45173
432.5000	3.85028
433.0000	4.33935
433.5000	4.9004
434.0000	5.47758
434.5000	6.21539
435.0000	7.17436
435.5000	8.20204
436.0000	9.44619
436.5000	10.9208
437.0000	12.6348
437.5000	14.5782
438.0000	16.947
438.5000	19.7198
439.0000	23.0187
439.5000	26.8347
440.0000	31.0863
440.5000	36.0093
441.0000	41.7945
441.5000	48.3742
442.0000	55.8947
442.5000	64.6142
443.0000	74.584
443.5000	85.8593
444.0000	98.2312
444.5000	112.916
445.0000	128.976
445.5000	147.493
446.0000	168.386
446.5000	191.047
447.0000	216.454
447.5000	244.776
448.0000	275.157
448.5000	309.369
449.0000	344.668
449.5000	381.698
450.0000	421.374
450.5000	461.855
451.0000	503.911
451.5000	544.5
452.0000	584.781
452.5000	624.917
453.0000	664.607
453.5000	700.859
454.0000	733.596
454.5000	765.259
455.0000	792.944
455.5000	817.267
456.0000	837.119
456.5000	853.598
457.0000	868.642
457.5000	878.858
458.0000	885.448
458.5000	889.323
459.0000	890.78
459.5000	889.545
460.0000	885.901
460.5000	880.442
461.0000	872.242
461.5000	861.691
462.0000	851.785
462.5000	839.685
463.0000	824.803
463.5000	810.03
464.0000	794.543
464.5000	778.466
465.0000	760.825
465.5000	743.163
466.0000	724.772
466.5000	708.434
467.0000	691.092
467.5000	672.817
468.0000	655.496
468.5000	639.129
469.0000	621.899
469.5000	606.172
470.0000	590.535
470.5000	576.01
471.0000	562.263
471.5000	549.501
472.0000	538.508
472.5000	527.65
473.0000	517.501
473.5000	509.751
474.0000	502.684
474.5000	496.42
475.0000	492.471
475.5000	490.211
476.0000	488.823
476.5000	488.688
477.0000	489.766
477.5000	492.556
478.0000	497.851
478.5000	503.573
479.0000	509.805
479.5000	517.212
480.0000	526.29
480.5000	535.353
481.0000	545.312
481.5000	555.598
482.0000	566.878
482.5000	576.548
483.0000	587.424
483.5000	597.636
484.0000	607.05
484.5000	616.529
485.0000	625.244
485.5000	633.418
486.0000	640.039
486.5000	646.227
487.0000	652.58
487.5000	656.219
488.0000	658.723
488.5000	660.266
489.0000	660.412
489.5000	660.383
490.0000	657.977
490.5000	654.566
491.0000	648.291
491.5000	642.021
492.0000	632.932
492.5000	623.006
493.0000	611.658
493.5000	600.049
494.0000	587.757
494.5000	573.967
495.0000	559.642
495.5000	544.874
496.0000	529.566
496.5000	514.298
497.0000	499.361
497.5000	484.423
498.0000	468.874
498.5000	454.446
499.0000	440.787
499.5000	427.007
500.0000	413.783
500.5000	401.127
501.0000	388.669
501.5000	376.765
502.0000	366.447
502.5000	355.849
503.0000	345.347
503.5000	335.11
504.0000	326.281
504.5000	318.314
505.0000	311.383
505.5000	304.475
506.0000	298.457
506.5000	292.601
507.0000	287.121
507.5000	282.145
508.0000	277.523
508.5000	274.241
509.0000	271.054
509.5000	268.379
510.0000	265.795
510.5000	263.422
511.0000	261.108
511.5000	259.963
512.0000	258.442
512.5000	257.344
513.0000	256.6
513.5000	255.654
514.0000	255.329
514.5000	255.03
515.0000	255.189
515.5000	255.17
516.0000	255.369
516.5000	256.507
517.0000	257.028
517.5000	257.443
518.0000	258.187
518.5000	258.498
519.0000	258.746
519.5000	259.948
520.0000	260.962
520.5000	261.868
521.0000	262.594
521.5000	263.372
522.0000	263.912
522.5000	265.211
523.0000	265.705
523.5000	266.477
524.0000	267.846
524.5000	267.78
525.0000	268.371
525.5000	268.365
526.0000	268.863
526.5000	269.006
527.0000	269.79
527.5000	270.025
528.0000	269.586
528.5000	270.066
529.0000	270.522
529.5000	270.194
530.0000	269.659
530.5000	268.672
531.0000	268.516
531.5000	268.002
532.0000	267.142
532.5000	266.051
533.0000	264.734
533.5000	263.427
534.0000	262.183
534.5000	260.531
535.0000	259.011
535.5000	257.472
536.0000	255.984
536.5000	253.726
537.0000	252.525
537.5000	250.201
538.0000	247.999
538.5000	246.147
539.0000	244.566
539.5000	242.987
540.0000	240.313
540.5000	237.341
541.0000	235.583
541.5000	233.519
542.0000	231.457
542.5000	229.869
543.0000	227.615
543.5000	225.359
544.0000	222.848
544.5000	221.288
545.0000	219.403
545.5000	217.311
546.0000	215.408
546.5000	213.128
547.0000	211.694
547.5000	210.31
548.0000	208.318
548.5000	206.646
549.0000	204.895
549.5000	202.822
550.0000	200.748
550.5000	199.225
551.0000	197.919
551.5000	196.427
552.0000	195.029
552.5000	193.513
553.0000	191.86
553.5000	190.823
554.0000	189.411
554.5000	187.605
555.0000	186.195
555.5000	184.698
556.0000	183.6
556.5000	182.319
557.0000	180.802
557.5000	179.898
558.0000	178.172
558.5000	176.858
559.0000	175.546
559.5000	174.279
560.0000	172.779
560.5000	171.759
561.0000	170.132
561.5000	169.12
562.0000	167.881
562.5000	166.888
563.0000	165.539
563.5000	163.808
564.0000	161.949
564.5000	161.266
565.0000	159.617
565.5000	158.323
566.0000	157.223
566.5000	155.654
567.0000	154.322
567.5000	153.145
568.0000	152.1
568.5000	150.671
569.0000	149.285
569.5000	147.994
570.0000	146.775
570.5000	145.529
571.0000	143.726
571.5000	142.176
572.0000	140.843
572.5000	139.848
573.0000	138.516
573.5000	136.607
574.0000	135.089
574.5000	133.915
575.0000	132.756
575.5000	131.314
576.0000	129.968
576.5000	128.127
577.0000	126.396
577.5000	124.836
578.0000	123.754
578.5000	122.555
579.0000	121.077
579.5000	119.698
580.0000	118.528
580.5000	117.285
581.0000	115.927
581.5000	114.538
582.0000	113.172
582.5000	111.6
583.0000	110.43
583.5000	108.821
584.0000	107.647
584.5000	106.515
585.0000	105.332
585.5000	104.219
586.0000	102.599
586.5000	101.572
587.0000	100.294
587.5000	99.0555
588.0000	97.8774
588.5000	96.7467
589.0000	95.6281
589.5000	94.567
590.0000	93.2384
590.5000	91.847
591.0000	90.4847
591.5000	89.6712
592.0000	88.527
592.5000	87.2778
593.0000	86.3365
593.5000	85.4263
594.0000	84.3551
594.5000	83.3881
595.0000	81.9793
595.5000	80.9125
596.0000	80.2592
596.5000	79.5445
597.0000	78.0395
597.5000	76.8673
598.0000	76.1328
598.5000	75.4383
599.0000	74.4773
599.5000	73.2937
600.0000	72.0786
600.5000	71.4164
601.0000	70.6892
601.5000	69.8503
602.0000	68.8409
602.5000	68.1094
603.0000	67.1677
603.5000	66.3008
604.0000	65.4436
604.5000	64.8191
605.0000	63.6548
605.5000	62.7343
606.0000	62.1536
606.5000	61.207
607.0000	60.5584
607.5000	59.8474
608.0000	59.1473
608.5000	58.3061
609.0000	57.5301
609.5000	56.6956
610.0000	56.2748
610.5000	55.6555
611.0000	54.7062
611.5000	53.6339
612.0000	52.999
612.5000	52.4026
613.0000	51.8489
613.5000	51.0514
614.0000	50.2298
614.5000	49.6429
615.0000	49.1686
615.5000	48.5535
616.0000	47.7787
616.5000	47.2239
617.0000	46.4445
617.5000	45.6414
618.0000	45.2858
618.5000	44.7451
619.0000	43.8621
619.5000	43.4463
620.0000	43.0346
620.5000	42.3634
621.0000	41.6062
621.5000	41.0467
622.0000	40.4715
622.5000	39.8264
623.0000	39.4062
623.5000	38.9438
624.0000	38.1654
624.5000	37.6464
625.0000	37.144
625.5000	36.7568
626.0000	35.9005
626.5000	35.3262
627.0000	35.0182
627.5000	34.6567
628.0000	34.0452
628.5000	33.4198
629.0000	32.8884
629.5000	32.4829
630.0000	32.0645
630.5000	31.6618
631.0000	31.0631
631.5000	30.8162
632.0000	30.4254
632.5000	29.9386
633.0000	29.3987
633.5000	28.939
634.0000	28.4978
634.5000	28.0638
635.0000	27.6078
635.5000	27.147
636.0000	26.9057
636.5000	26.2774
637.0000	26.0532
637.5000	25.6546
638.0000	25.2868
638.5000	25.0383
639.0000	24.4839
639.5000	24.0559
640.0000	23.6591
640.5000	23.4339
641.0000	23.0135
641.5000	22.6243
642.0000	22.3171
642.5000	21.9207
643.0000	21.5318
643.5000	21.1955
644.0000	21.1086
644.5000	20.6279
645.0000	20.1817
645.5000	20.0149
646.0000	19.8565
646.5000	19.5957
647.0000	19.132
647.5000	18.857
648.0000	18.5017
648.5000	18.2471
649.0000	17.9642
649.5000	17.69
650.0000	17.6337
650.5000	17.2589
651.0000	16.9025
651.5000	16.5727
652.0000	16.4153
652.5000	16.0397
653.0000	15.7679
653.5000	15.5357
654.0000	15.374
654.5000	15.1937
655.0000	14.8671
655.5000	14.5842
656.0000	14.4001
656.5000	14.2048
657.0000	14.11
657.5000	13.8282
658.0000	13.5427
658.5000	13.375
659.0000	13.1477
659.5000	12.9119
660.0000	12.6871
660.5000	12.4079
661.0000	12.2795
661.5000	12.1381
662.0000	11.9537
662.5000	11.7342
663.0000	11.4854
663.5000	11.3053
664.0000	11.0686
664.5000	10.9126
665.0000	10.6866
665.5000	10.6077
666.0000	10.5323
666.5000	10.3089
667.0000	10.0737
667.5000	9.91722
668.0000	9.73936
668.5000	9.59075
669.0000	9.46215
669.5000	9.32228
670.0000	9.19916
670.5000	9.08837
671.0000	8.83508
671.5000	8.63281
672.0000	8.56827
672.5000	8.49916
673.0000	8.41867
673.5000	8.23336
674.0000	8.17763
674.5000	7.90611
675.0000	7.7672
675.5000	7.66594
676.0000	7.48713
676.5000	7.34935
677.0000	7.25371
677.5000	7.23549
678.0000	7.12962
678.5000	7.00421
679.0000	6.7761
679.5000	6.63557
680.0000	6.56853
680.5000	6.4966
681.0000	6.41693
681.5000	6.22887
682.0000	6.13534
682.5000	6.0205
683.0000	5.94397
683.5000	5.80189
684.0000	5.76464
684.5000	5.72049
685.0000	5.5742
685.5000	5.51994
686.0000	5.43986
686.5000	5.26184
687.0000	5.11842
687.5000	5.10526
688.0000	5.05825
688.5000	4.90855
689.0000	4.88209
689.5000	4.85911
690.0000	4.73464
690.5000	4.63872
691.0000	4.60722
691.5000	4.45892
692.0000	4.375
692.5000	4.42047
693.0000	4.25978
693.5000	4.14977
694.0000	4.09965
694.5000	4.10543
695.0000	3.97707
695.5000	3.94234
696.0000	3.83629
696.5000	3.80748
697.0000	3.77519
697.5000	3.65406
698.0000	3.5923
698.5000	3.49098
699.0000	3.4193
699.5000	3.40196
700.0000	3.39418

##### Extended Information
[コメント情報]
試料名
コメント
測定者
所属
会社	関西大学

[データ情報]
作成日時	2025/04/16 22:53

データタイプ	等間隔データ
横軸	Wavelength [nm]
縦軸	Int.
スタート	422 nm
エンド	700 nm
データ間隔	0.5 nm
データ数	557     

[測定情報]
機種名	FP-8300
シリアル番号	C037361450
  Ex側フォルダ	なし
  Em側フォルダ	なし

付属品名	SCE-846
付属品シリアルNo.	C037361450

測定日時	2025/04/16 22:53

測定モード	蛍光
励起側バンド幅	5 nm
蛍光側バンド幅	5 nm
レスポンス	0.1 sec
感度	Low
測定範囲	422 - 700 nm
データ取込間隔	0.5 nm
励起波長	422.0 nm
走査速度	500 nm/min
オートゲイン	Off
自動シャッタ制御	測定時のみ開く
光源	キセノンランプ
フィルタ	交換時にスキャンを停止する
ブランク補正	Off

