TITLE	
DATA TYPE	FLUORESCENCE SPECTRUM
ORIGIN	JASCO
OWNER	
DATE	25/04/13
TIME	19:46:26
SPECTROMETER/DATA SYSTEM	
LOCALE	1041
RESOLUTION	
DELTAX	0.5
XUNITS	NANOMETERS
YUNITS	INTENSITY
FIRSTX	  422.0000
LASTX	  700.0000
NPOINTS	     557
FIRSTY	   128.20169
MAXY	   627.18158
MINY	     2.06651
XYDATA
422.0000	128.202
422.5000	110.683
423.0000	92.5028
423.5000	73.9846
424.0000	56.6669
424.5000	41.2031
425.0000	28.8045
425.5000	19.0686
426.0000	12.6417
426.5000	8.15058
427.0000	5.44165
427.5000	3.88108
428.0000	3.02632
428.5000	2.7577
429.0000	2.64847
429.5000	2.66872
430.0000	2.74241
430.5000	2.90977
431.0000	3.10567
431.5000	3.36872
432.0000	3.58553
432.5000	3.94525
433.0000	4.2513
433.5000	4.6566
434.0000	5.17763
434.5000	5.86143
435.0000	6.53517
435.5000	7.27954
436.0000	8.3034
436.5000	9.5373
437.0000	10.9024
437.5000	12.5241
438.0000	14.5255
438.5000	16.7632
439.0000	19.2919
439.5000	22.2804
440.0000	25.8598
440.5000	29.5745
441.0000	34.1711
441.5000	39.682
442.0000	45.5802
442.5000	52.4873
443.0000	60.2733
443.5000	68.9576
444.0000	78.8207
444.5000	90.1788
445.0000	103.146
445.5000	118.133
446.0000	133.76
446.5000	151.301
447.0000	172.083
447.5000	194.007
448.0000	217.093
448.5000	242.29
449.0000	269.29
449.5000	297.431
450.0000	326.364
450.5000	355.942
451.0000	386.517
451.5000	416.134
452.0000	444.254
452.5000	472.943
453.0000	500.239
453.5000	523.922
454.0000	545.699
454.5000	565.766
455.0000	582.674
455.5000	596.435
456.0000	607.893
456.5000	615.926
457.0000	622.205
457.5000	626.357
458.0000	627.182
458.5000	626.932
459.0000	624.351
459.5000	620.496
460.0000	614.326
460.5000	606.874
461.0000	597.754
461.5000	588.228
462.0000	579.38
462.5000	568.842
463.0000	557.648
463.5000	544.385
464.0000	530.62
464.5000	517.772
465.0000	505.125
465.5000	490.823
466.0000	476.11
466.5000	462.949
467.0000	450.326
467.5000	436.947
468.0000	425.019
468.5000	412.919
469.0000	400.668
469.5000	388.184
470.0000	377.681
470.5000	367.92
471.0000	358.178
471.5000	349.305
472.0000	341.385
472.5000	334.38
473.0000	327.501
473.5000	322.66
474.0000	318.128
474.5000	314.576
475.0000	311.839
475.5000	310.241
476.0000	309.846
476.5000	310.721
477.0000	312.289
477.5000	315.347
478.0000	318.617
478.5000	323.499
479.0000	328.206
479.5000	333.965
480.0000	340.059
480.5000	346.103
481.0000	353.77
481.5000	361.639
482.0000	368.5
482.5000	374.944
483.0000	381.896
483.5000	388.694
484.0000	394.47
484.5000	399.968
485.0000	404.925
485.5000	409.557
486.0000	413.241
486.5000	416.372
487.0000	418.47
487.5000	420.374
488.0000	421.42
488.5000	422.129
489.0000	421.32
489.5000	419.12
490.0000	415.711
490.5000	411.627
491.0000	406.429
491.5000	400.759
492.0000	393.717
492.5000	385.995
493.0000	377.698
493.5000	368.265
494.0000	358.729
494.5000	348.839
495.0000	338.639
495.5000	327.047
496.0000	316.738
496.5000	306.95
497.0000	296.028
497.5000	285.819
498.0000	275.992
498.5000	266.138
499.0000	256.377
499.5000	246.727
500.0000	238.109
500.5000	229.771
501.0000	221.362
501.5000	213.455
502.0000	205.707
502.5000	198.702
503.0000	192.236
503.5000	186.264
504.0000	180.747
504.5000	175.302
505.0000	170.136
505.5000	165.769
506.0000	161.582
506.5000	157.954
507.0000	154.428
507.5000	151.055
508.0000	148.103
508.5000	145.936
509.0000	143.572
509.5000	141.535
510.0000	139.58
510.5000	137.884
511.0000	136.215
511.5000	135.253
512.0000	134.76
512.5000	133.938
513.0000	132.975
513.5000	132.374
514.0000	132.086
514.5000	131.853
515.0000	131.789
515.5000	131.391
516.0000	131.247
516.5000	131.206
517.0000	131.368
517.5000	131.369
518.0000	131.815
518.5000	131.673
519.0000	131.766
519.5000	132.356
520.0000	132.549
520.5000	132.627
521.0000	132.579
521.5000	133.209
522.0000	133.791
522.5000	133.877
523.0000	133.756
523.5000	134.007
524.0000	133.92
524.5000	133.827
525.0000	134.01
525.5000	134.115
526.0000	134.116
526.5000	133.613
527.0000	133.577
527.5000	133.611
528.0000	132.734
528.5000	132.447
529.0000	132.313
529.5000	131.55
530.0000	130.833
530.5000	130.624
531.0000	129.964
531.5000	129.38
532.0000	128.531
532.5000	127.558
533.0000	126.75
533.5000	125.415
534.0000	124.014
534.5000	123.208
535.0000	122.619
535.5000	121.641
536.0000	120.569
536.5000	119.502
537.0000	118.104
537.5000	116.857
538.0000	115.829
538.5000	114.677
539.0000	113.17
539.5000	111.816
540.0000	110.83
540.5000	109.339
541.0000	108.371
541.5000	107.563
542.0000	106.249
542.5000	105.036
543.0000	103.925
543.5000	102.656
544.0000	101.748
544.5000	100.697
545.0000	99.7552
545.5000	98.6241
546.0000	97.6372
546.5000	96.6602
547.0000	95.6177
547.5000	94.5483
548.0000	93.7983
548.5000	92.855
549.0000	91.9436
549.5000	91.1589
550.0000	90.4067
550.5000	89.935
551.0000	89.3264
551.5000	88.3107
552.0000	87.6532
552.5000	87.3993
553.0000	86.538
553.5000	86.1204
554.0000	85.4371
554.5000	85.1015
555.0000	84.1089
555.5000	83.6441
556.0000	83.0566
556.5000	82.7655
557.0000	82.0321
557.5000	81.528
558.0000	81.3783
558.5000	80.5759
559.0000	80.1173
559.5000	79.5469
560.0000	79.3475
560.5000	78.414
561.0000	78.0123
561.5000	77.6096
562.0000	77.25
562.5000	76.4537
563.0000	76.227
563.5000	75.8632
564.0000	74.9221
564.5000	74.2176
565.0000	73.92
565.5000	73.4
566.0000	72.888
566.5000	72.0922
567.0000	71.5938
567.5000	71.3389
568.0000	70.4131
568.5000	70.0589
569.0000	69.8325
569.5000	68.949
570.0000	68.2087
570.5000	67.7186
571.0000	66.9962
571.5000	66.069
572.0000	65.6413
572.5000	65.0992
573.0000	64.4527
573.5000	63.6089
574.0000	62.8941
574.5000	62.5301
575.0000	61.9678
575.5000	61.4558
576.0000	60.7809
576.5000	59.9242
577.0000	59.2628
577.5000	58.8415
578.0000	58.4102
578.5000	57.5819
579.0000	56.7796
579.5000	56.1312
580.0000	55.5197
580.5000	55.0639
581.0000	54.3493
581.5000	53.6577
582.0000	53.105
582.5000	52.4429
583.0000	51.9864
583.5000	51.2143
584.0000	50.5573
584.5000	50.0077
585.0000	49.4384
585.5000	48.7994
586.0000	48.4054
586.5000	47.7686
587.0000	47.0056
587.5000	46.4638
588.0000	46.0338
588.5000	45.6876
589.0000	45.0849
589.5000	44.323
590.0000	43.7255
590.5000	43.3475
591.0000	42.78
591.5000	42.0936
592.0000	41.7802
592.5000	41.3631
593.0000	40.9806
593.5000	40.3425
594.0000	39.6999
594.5000	39.4451
595.0000	38.8146
595.5000	38.0285
596.0000	37.7731
596.5000	37.4455
597.0000	37.2038
597.5000	36.6488
598.0000	36.023
598.5000	35.6995
599.0000	35.1612
599.5000	34.6828
600.0000	34.16
600.5000	33.7524
601.0000	33.4793
601.5000	33.2623
602.0000	32.9045
602.5000	32.5601
603.0000	32.2636
603.5000	31.8245
604.0000	31.4087
604.5000	31.0629
605.0000	30.5635
605.5000	30.0777
606.0000	29.9504
606.5000	29.4868
607.0000	29.0176
607.5000	28.6901
608.0000	28.3695
608.5000	28.0338
609.0000	27.5335
609.5000	27.225
610.0000	26.8887
610.5000	26.6225
611.0000	26.3273
611.5000	26.0615
612.0000	25.695
612.5000	25.3362
613.0000	25.0251
613.5000	24.6896
614.0000	24.5081
614.5000	24.2032
615.0000	23.7673
615.5000	23.474
616.0000	23.3691
616.5000	22.9765
617.0000	22.5349
617.5000	22.2587
618.0000	22.0313
618.5000	21.7185
619.0000	21.4412
619.5000	21.0978
620.0000	20.8979
620.5000	20.6637
621.0000	20.3324
621.5000	20.0779
622.0000	20.0276
622.5000	19.6672
623.0000	19.3027
623.5000	19.0076
624.0000	18.6443
624.5000	18.5826
625.0000	18.3349
625.5000	18.1568
626.0000	17.8216
626.5000	17.4935
627.0000	17.3957
627.5000	17.2928
628.0000	16.8061
628.5000	16.538
629.0000	16.3971
629.5000	16.0711
630.0000	15.9353
630.5000	15.8366
631.0000	15.5601
631.5000	15.3003
632.0000	15.0515
632.5000	14.8141
633.0000	14.7438
633.5000	14.4381
634.0000	14.232
634.5000	14.0331
635.0000	13.8545
635.5000	13.6797
636.0000	13.4971
636.5000	13.2026
637.0000	13.0075
637.5000	12.938
638.0000	12.696
638.5000	12.5446
639.0000	12.3201
639.5000	12.0933
640.0000	11.9391
640.5000	11.7353
641.0000	11.5865
641.5000	11.4684
642.0000	11.2538
642.5000	11.1133
643.0000	10.9935
643.5000	10.7395
644.0000	10.536
644.5000	10.4959
645.0000	10.3424
645.5000	10.0069
646.0000	9.91699
646.5000	9.83936
647.0000	9.72231
647.5000	9.60332
648.0000	9.39984
648.5000	9.34268
649.0000	9.24577
649.5000	8.98552
650.0000	8.91833
650.5000	8.77858
651.0000	8.69316
651.5000	8.49862
652.0000	8.42159
652.5000	8.27121
653.0000	8.24196
653.5000	8.02713
654.0000	7.94585
654.5000	7.86799
655.0000	7.71878
655.5000	7.56445
656.0000	7.50218
656.5000	7.41931
657.0000	7.16504
657.5000	7.13619
658.0000	7.03966
658.5000	6.88364
659.0000	6.75632
659.5000	6.65919
660.0000	6.57443
660.5000	6.55901
661.0000	6.47333
661.5000	6.4684
662.0000	6.26811
662.5000	6.18209
663.0000	6.03496
663.5000	5.92789
664.0000	5.96469
664.5000	5.76258
665.0000	5.71685
665.5000	5.7271
666.0000	5.55444
666.5000	5.45832
667.0000	5.31079
667.5000	5.31933
668.0000	5.27966
668.5000	5.19424
669.0000	5.14429
669.5000	5.07911
670.0000	4.99229
670.5000	4.93417
671.0000	4.82848
671.5000	4.73
672.0000	4.68211
672.5000	4.58312
673.0000	4.5059
673.5000	4.36626
674.0000	4.35836
674.5000	4.28507
675.0000	4.22487
675.5000	4.21981
676.0000	4.20647
676.5000	4.11516
677.0000	4.04926
677.5000	3.96192
678.0000	3.86271
678.5000	3.85426
679.0000	3.77656
679.5000	3.66186
680.0000	3.68611
680.5000	3.59568
681.0000	3.52181
681.5000	3.47329
682.0000	3.45548
682.5000	3.34291
683.0000	3.36346
683.5000	3.34824
684.0000	3.24706
684.5000	3.24862
685.0000	3.17011
685.5000	3.09342
686.0000	3.06747
686.5000	2.99189
687.0000	2.98366
687.5000	2.93573
688.0000	2.88923
688.5000	2.87159
689.0000	2.79364
689.5000	2.7363
690.0000	2.70215
690.5000	2.64517
691.0000	2.58433
691.5000	2.58756
692.0000	2.54684
692.5000	2.52201
693.0000	2.50922
693.5000	2.46623
694.0000	2.44825
694.5000	2.31875
695.0000	2.35384
695.5000	2.39707
696.0000	2.33168
696.5000	2.28686
697.0000	2.20078
697.5000	2.23468
698.0000	2.17197
698.5000	2.13627
699.0000	2.12607
699.5000	2.11209
700.0000	2.06651

##### Extended Information
[コメント情報]
試料名
コメント
測定者
所属
会社	関西大学

[データ情報]
作成日時	2025/04/13 19:46

データタイプ	等間隔データ
横軸	Wavelength [nm]
縦軸	Int.
スタート	422 nm
エンド	700 nm
データ間隔	0.5 nm
データ数	557     

[測定情報]
機種名	FP-8300
シリアル番号	C037361450
  Ex側フォルダ	なし
  Em側フォルダ	なし

付属品名	SCE-846
付属品シリアルNo.	C037361450

測定日時	2025/04/13 19:46

測定モード	蛍光
励起側バンド幅	5 nm
蛍光側バンド幅	5 nm
レスポンス	0.1 sec
感度	Low
測定範囲	422 - 700 nm
データ取込間隔	0.5 nm
励起波長	422.0 nm
走査速度	500 nm/min
オートゲイン	Off
自動シャッタ制御	測定時のみ開く
光源	キセノンランプ
フィルタ	交換時にスキャンを停止する
ブランク補正	Off

