TITLE	
DATA TYPE	FLUORESCENCE SPECTRUM
ORIGIN	JASCO
OWNER	
DATE	25/02/07
TIME	11:37:37
SPECTROMETER/DATA SYSTEM	
LOCALE	1041
RESOLUTION	
DELTAX	0.5
XUNITS	NANOMETERS
YUNITS	INTENSITY
FIRSTX	  422.0000
LASTX	  700.0000
NPOINTS	     557
FIRSTY	    92.33427
MAXY	  2471.49512
MINY	     3.21595
XYDATA
422.0000	92.3343
422.5000	83.8009
423.0000	72.529
423.5000	60.3528
424.0000	48.5326
424.5000	37.2907
425.0000	27.8467
425.5000	20.4468
426.0000	14.9933
426.5000	10.8855
427.0000	8.3349
427.5000	6.86593
428.0000	6.11234
428.5000	5.87969
429.0000	5.9606
429.5000	6.33148
430.0000	6.7962
430.5000	7.41386
431.0000	8.10005
431.5000	8.97118
432.0000	9.8906
432.5000	11.0066
433.0000	12.3024
433.5000	13.9417
434.0000	15.8384
434.5000	17.9754
435.0000	20.6447
435.5000	23.757
436.0000	27.3343
436.5000	31.6895
437.0000	36.8173
437.5000	42.4191
438.0000	49.0694
438.5000	57.2338
439.0000	67.031
439.5000	77.8723
440.0000	90.3643
440.5000	104.696
441.0000	121.218
441.5000	140.865
442.0000	163.164
442.5000	187.603
443.0000	215.604
443.5000	247.381
444.0000	284.696
444.5000	326.535
445.0000	373.397
445.5000	425.739
446.0000	485.425
446.5000	552.225
447.0000	627.461
447.5000	708.222
448.0000	795.017
448.5000	888.918
449.0000	991.497
449.5000	1098.98
450.0000	1210.92
450.5000	1323.08
451.0000	1437.76
451.5000	1553.94
452.0000	1670.81
452.5000	1783.61
453.0000	1889.04
453.5000	1988.61
454.0000	2080.57
454.5000	2163.58
455.0000	2238.89
455.5000	2301.9
456.0000	2352.82
456.5000	2396.47
457.0000	2431.31
457.5000	2452.21
458.0000	2464.38
458.5000	2471.5
459.0000	2469.11
459.5000	2459.28
460.0000	2442.77
460.5000	2419.85
461.0000	2392.75
461.5000	2359.63
462.0000	2322.51
462.5000	2282.67
463.0000	2237.37
463.5000	2190.16
464.0000	2140.23
464.5000	2089.35
465.0000	2038.24
465.5000	1984.45
466.0000	1928.43
466.5000	1877.11
467.0000	1823.16
467.5000	1770.36
468.0000	1720.56
468.5000	1669.16
469.0000	1621.47
469.5000	1574.03
470.0000	1527.81
470.5000	1485.81
471.0000	1446.18
471.5000	1409.62
472.0000	1376.63
472.5000	1347.44
473.0000	1320.48
473.5000	1297.08
474.0000	1278.01
474.5000	1262.32
475.0000	1251.16
475.5000	1244.36
476.0000	1241.91
476.5000	1244.19
477.0000	1250.47
477.5000	1260.06
478.0000	1274.07
478.5000	1290.95
479.0000	1311.75
479.5000	1336.3
480.0000	1362.44
480.5000	1388.87
481.0000	1416.57
481.5000	1446.5
482.0000	1476.72
482.5000	1507.97
483.0000	1536.55
483.5000	1565.61
484.0000	1591.19
484.5000	1616.62
485.0000	1638.68
485.5000	1658.46
486.0000	1676.39
486.5000	1691.66
487.0000	1702.21
487.5000	1710.84
488.0000	1715.75
488.5000	1718.55
489.0000	1717.65
489.5000	1712.51
490.0000	1700.46
490.5000	1687.07
491.0000	1666.34
491.5000	1643.35
492.0000	1618.32
492.5000	1588.72
493.0000	1556.21
493.5000	1520.67
494.0000	1481.54
494.5000	1442.37
495.0000	1399.15
495.5000	1357.47
496.0000	1314.84
496.5000	1271.39
497.0000	1227.76
497.5000	1184.89
498.0000	1143.05
498.5000	1102.68
499.0000	1063.49
499.5000	1025.35
500.0000	987.834
500.5000	951.768
501.0000	917.217
501.5000	886.128
502.0000	854.712
502.5000	826.021
503.0000	798.092
503.5000	772.305
504.0000	746.692
504.5000	724.957
505.0000	704.975
505.5000	684.857
506.0000	666.063
506.5000	651.147
507.0000	637.182
507.5000	623.205
508.0000	611.014
508.5000	599.497
509.0000	588.934
509.5000	580.081
510.0000	572.91
510.5000	566.511
511.0000	560.282
511.5000	555.294
512.0000	551.739
512.5000	548.032
513.0000	545.015
513.5000	543.251
514.0000	540.559
514.5000	540.574
515.0000	540.077
515.5000	539.727
516.0000	539.95
516.5000	539.619
517.0000	540.58
517.5000	541.918
518.0000	542.619
518.5000	544.227
519.0000	545.033
519.5000	546.858
520.0000	548.216
520.5000	549.658
521.0000	550.234
521.5000	551.239
522.0000	552.198
522.5000	553.342
523.0000	554.489
523.5000	555.122
524.0000	555.11
524.5000	555.463
525.0000	555.067
525.5000	555.744
526.0000	555.364
526.5000	554.26
527.0000	552.947
527.5000	552.112
528.0000	550.762
528.5000	548.675
529.0000	546.908
529.5000	544.188
530.0000	540.94
530.5000	537.135
531.0000	533.507
531.5000	530.468
532.0000	525.418
532.5000	519.904
533.0000	515.888
533.5000	511.337
534.0000	506.166
534.5000	500.577
535.0000	494.414
535.5000	488.552
536.0000	482.803
536.5000	476.009
537.0000	469.426
537.5000	463.141
538.0000	457.107
538.5000	450.799
539.0000	444.037
539.5000	437.464
540.0000	430.587
540.5000	423.267
541.0000	416.996
541.5000	410.147
542.0000	403.746
542.5000	397.454
543.0000	391.31
543.5000	385.564
544.0000	378.744
544.5000	372.633
545.0000	367.782
545.5000	362.951
546.0000	357.492
546.5000	351.489
547.0000	346.877
547.5000	341.982
548.0000	336.757
548.5000	331.566
549.0000	327.395
549.5000	323.474
550.0000	318.699
550.5000	313.906
551.0000	309.599
551.5000	306.099
552.0000	302.862
552.5000	298.892
553.0000	295.327
553.5000	291.693
554.0000	288.583
554.5000	285.235
555.0000	281.99
555.5000	278.856
556.0000	275.137
556.5000	271.863
557.0000	269.613
557.5000	267.048
558.0000	264.229
558.5000	261.867
559.0000	259.225
559.5000	256.879
560.0000	253.557
560.5000	250.979
561.0000	248.408
561.5000	245.604
562.0000	243.037
562.5000	240.434
563.0000	237.967
563.5000	235.41
564.0000	232.93
564.5000	230.384
565.0000	228.164
565.5000	225.548
566.0000	222.632
566.5000	219.83
567.0000	217.326
567.5000	215.334
568.0000	212.829
568.5000	210.147
569.0000	207.434
569.5000	205.17
570.0000	202.64
570.5000	199.763
571.0000	196.841
571.5000	194.66
572.0000	192.347
572.5000	190.132
573.0000	187.151
573.5000	184.381
574.0000	181.973
574.5000	179.815
575.0000	176.953
575.5000	174.233
576.0000	172.04
576.5000	169.794
577.0000	167.483
577.5000	165.055
578.0000	161.964
578.5000	159.343
579.0000	157.06
579.5000	155.04
580.0000	152.596
580.5000	150.349
581.0000	147.892
581.5000	145.906
582.0000	143.39
582.5000	140.79
583.0000	139.067
583.5000	136.812
584.0000	134.578
584.5000	132.534
585.0000	130.511
585.5000	128.665
586.0000	126.444
586.5000	124.158
587.0000	122.381
587.5000	120.352
588.0000	118.65
588.5000	116.967
589.0000	115.015
589.5000	112.993
590.0000	111.44
590.5000	109.543
591.0000	107.518
591.5000	105.973
592.0000	104.695
592.5000	103.103
593.0000	101.436
593.5000	99.6705
594.0000	98.0273
594.5000	96.4825
595.0000	95.1818
595.5000	93.8418
596.0000	92.6511
596.5000	90.8335
597.0000	89.4528
597.5000	88.1934
598.0000	86.8394
598.5000	85.583
599.0000	84.3738
599.5000	83.2135
600.0000	81.987
600.5000	80.8064
601.0000	79.6089
601.5000	78.4728
602.0000	77.1589
602.5000	76.2214
603.0000	75.0299
603.5000	73.9598
604.0000	72.7615
604.5000	71.3601
605.0000	70.6471
605.5000	69.7737
606.0000	68.8497
606.5000	67.7151
607.0000	66.6458
607.5000	65.5388
608.0000	64.5326
608.5000	63.4624
609.0000	62.7932
609.5000	61.9839
610.0000	61.2001
610.5000	60.2033
611.0000	59.0515
611.5000	58.473
612.0000	57.4951
612.5000	56.6417
613.0000	55.7139
613.5000	54.8199
614.0000	54.067
614.5000	53.332
615.0000	52.5214
615.5000	51.9701
616.0000	51.3662
616.5000	50.2708
617.0000	49.5109
617.5000	48.9225
618.0000	48.264
618.5000	47.4768
619.0000	46.7933
619.5000	45.9257
620.0000	45.384
620.5000	44.8585
621.0000	43.8601
621.5000	43.0253
622.0000	42.483
622.5000	41.9088
623.0000	41.4676
623.5000	40.7997
624.0000	40.1448
624.5000	39.4648
625.0000	38.8102
625.5000	38.1119
626.0000	37.4612
626.5000	36.8937
627.0000	36.4749
627.5000	35.953
628.0000	35.5405
628.5000	34.7859
629.0000	34.1635
629.5000	33.6771
630.0000	33.1041
630.5000	32.5567
631.0000	32.0235
631.5000	31.5198
632.0000	31.0769
632.5000	30.5557
633.0000	29.9849
633.5000	29.4757
634.0000	28.9532
634.5000	28.6178
635.0000	27.9608
635.5000	27.619
636.0000	27.1752
636.5000	26.9452
637.0000	26.3203
637.5000	25.8523
638.0000	25.4228
638.5000	25.1359
639.0000	24.5969
639.5000	24.2777
640.0000	24.0077
640.5000	23.5585
641.0000	23.0002
641.5000	22.5884
642.0000	22.4418
642.5000	21.9696
643.0000	21.4624
643.5000	21.1923
644.0000	20.7672
644.5000	20.5444
645.0000	20.1621
645.5000	19.7488
646.0000	19.5129
646.5000	19.3704
647.0000	18.9374
647.5000	18.5763
648.0000	18.2623
648.5000	17.8527
649.0000	17.7151
649.5000	17.4706
650.0000	17.1183
650.5000	16.9166
651.0000	16.6102
651.5000	16.3299
652.0000	16.1927
652.5000	15.9561
653.0000	15.4435
653.5000	15.0446
654.0000	14.862
654.5000	14.7184
655.0000	14.6162
655.5000	14.3165
656.0000	14.0101
656.5000	13.677
657.0000	13.477
657.5000	13.3599
658.0000	13.208
658.5000	12.9451
659.0000	12.6005
659.5000	12.3846
660.0000	12.1139
660.5000	11.95
661.0000	11.9661
661.5000	11.6882
662.0000	11.3822
662.5000	11.1707
663.0000	10.9947
663.5000	10.8614
664.0000	10.74
664.5000	10.5828
665.0000	10.417
665.5000	10.3009
666.0000	10.1122
666.5000	9.89984
667.0000	9.74962
667.5000	9.54706
668.0000	9.45396
668.5000	9.25236
669.0000	9.08981
669.5000	8.94685
670.0000	8.8746
670.5000	8.63136
671.0000	8.52262
671.5000	8.37405
672.0000	8.23843
672.5000	8.02643
673.0000	7.89878
673.5000	7.83434
674.0000	7.78
674.5000	7.59884
675.0000	7.42045
675.5000	7.30807
676.0000	7.20713
676.5000	7.19222
677.0000	6.99626
677.5000	6.93622
678.0000	6.75583
678.5000	6.65136
679.0000	6.48427
679.5000	6.28384
680.0000	6.26743
680.5000	6.27116
681.0000	6.08984
681.5000	5.97339
682.0000	5.91407
682.5000	5.81559
683.0000	5.78408
683.5000	5.58066
684.0000	5.48265
684.5000	5.41553
685.0000	5.30629
685.5000	5.30454
686.0000	5.23943
686.5000	5.13132
687.0000	4.99027
687.5000	4.84834
688.0000	4.88765
688.5000	4.7798
689.0000	4.70033
689.5000	4.66117
690.0000	4.56808
690.5000	4.4557
691.0000	4.35732
691.5000	4.31776
692.0000	4.24078
692.5000	4.11697
693.0000	4.08674
693.5000	4.02995
694.0000	3.95028
694.5000	3.89851
695.0000	3.89826
695.5000	3.77565
696.0000	3.64389
696.5000	3.60632
697.0000	3.59805
697.5000	3.54701
698.0000	3.46227
698.5000	3.40232
699.0000	3.26776
699.5000	3.27459
700.0000	3.21595

##### Extended Information
[コメント情報]
試料名
コメント
測定者
所属
会社	関西大学

[データ情報]
作成日時	2025/02/07 11:37

データタイプ	等間隔データ
横軸	Wavelength [nm]
縦軸	Int.
スタート	422 nm
エンド	700 nm
データ間隔	0.5 nm
データ数	557     

[測定情報]
機種名	FP-8300
シリアル番号	C037361450
  Ex側フォルダ	なし
  Em側フォルダ	なし

付属品名	SCE-846
付属品シリアルNo.	C037361450

測定日時	2025/02/07 11:37

測定モード	蛍光
励起側バンド幅	5 nm
蛍光側バンド幅	5 nm
レスポンス	0.1 sec
感度	Low
測定範囲	422 - 700 nm
データ取込間隔	0.5 nm
励起波長	422.0 nm
走査速度	500 nm/min
オートゲイン	Off
自動シャッタ制御	測定時のみ開く
光源	キセノンランプ
フィルタ	交換時にスキャンを停止する
ブランク補正	Off

