TITLE	
DATA TYPE	FLUORESCENCE SPECTRUM
ORIGIN	JASCO
OWNER	
DATE	25/01/28
TIME	14:35:15
SPECTROMETER/DATA SYSTEM	
LOCALE	1041
RESOLUTION	
DELTAX	0.5
XUNITS	NANOMETERS
YUNITS	INTENSITY
FIRSTX	  422.0000
LASTX	  700.0000
NPOINTS	     557
FIRSTY	   111.14501
MAXY	  2937.88916
MINY	     3.28023
XYDATA
422.0000	111.145
422.5000	97.0114
423.0000	81.8243
423.5000	67.2634
424.0000	52.9628
424.5000	39.7417
425.0000	28.8627
425.5000	20.6267
426.0000	15.0223
426.5000	11.1439
427.0000	8.81129
427.5000	7.73644
428.0000	7.37935
428.5000	7.34031
429.0000	7.63111
429.5000	8.22106
430.0000	8.80083
430.5000	9.60148
431.0000	10.5372
431.5000	11.6846
432.0000	12.9691
432.5000	14.5057
433.0000	16.2594
433.5000	18.3318
434.0000	20.8296
434.5000	23.9086
435.0000	27.2627
435.5000	31.1983
436.0000	36.0548
436.5000	41.8633
437.0000	48.4157
437.5000	56.2761
438.0000	65.4382
438.5000	75.6963
439.0000	88.357
439.5000	102.933
440.0000	119.248
440.5000	137.731
441.0000	159.531
441.5000	184.44
442.0000	213.198
442.5000	245.694
443.0000	281.755
443.5000	323.121
444.0000	370.459
444.5000	424.228
445.0000	484.167
445.5000	551.298
446.0000	626.849
446.5000	710.197
447.0000	803.247
447.5000	905.918
448.0000	1014.45
448.5000	1131.07
449.0000	1255.58
449.5000	1387.04
450.0000	1522.61
450.5000	1659.17
451.0000	1797.76
451.5000	1933.7
452.0000	2068.17
452.5000	2198.69
453.0000	2321.17
453.5000	2433.82
454.0000	2536.21
454.5000	2629.51
455.0000	2712.17
455.5000	2779.82
456.0000	2835.17
456.5000	2876.95
457.0000	2911.23
457.5000	2929.89
458.0000	2937.89
458.5000	2937.82
459.0000	2927.38
459.5000	2907.98
460.0000	2883.68
460.5000	2851.4
461.0000	2812.56
461.5000	2769.04
462.0000	2721.02
462.5000	2668.28
463.0000	2609.04
463.5000	2549.08
464.0000	2488.71
464.5000	2426.6
465.0000	2363.02
465.5000	2297.72
466.0000	2229.93
466.5000	2166.15
467.0000	2102.55
467.5000	2039.33
468.0000	1980.86
468.5000	1921.27
469.0000	1864.24
469.5000	1809.99
470.0000	1756.87
470.5000	1707.66
471.0000	1661.04
471.5000	1620.79
472.0000	1584.95
472.5000	1552.01
473.0000	1521.88
473.5000	1497.86
474.0000	1477.76
474.5000	1462.94
475.0000	1453.63
475.5000	1447.6
476.0000	1446.6
476.5000	1451.51
477.0000	1464.58
477.5000	1479.55
478.0000	1498.81
478.5000	1522.04
479.0000	1551.28
479.5000	1580.96
480.0000	1612.73
480.5000	1646.66
481.0000	1683.04
481.5000	1720.99
482.0000	1758.55
482.5000	1793.18
483.0000	1825.13
483.5000	1857.75
484.0000	1889.3
484.5000	1917.86
485.0000	1943.42
485.5000	1964.35
486.0000	1983.01
486.5000	1996.68
487.0000	2006.21
487.5000	2015.53
488.0000	2020.35
488.5000	2021.27
489.0000	2014.85
489.5000	2002.82
490.0000	1988.12
490.5000	1968.78
491.0000	1942.32
491.5000	1912.87
492.0000	1880.1
492.5000	1840.33
493.0000	1798.38
493.5000	1755.37
494.0000	1709.67
494.5000	1660.94
495.0000	1608.89
495.5000	1555.23
496.0000	1504.91
496.5000	1453.87
497.0000	1402.91
497.5000	1353.69
498.0000	1302.17
498.5000	1253.62
499.0000	1207.64
499.5000	1160.72
500.0000	1118.67
500.5000	1075.67
501.0000	1035.43
501.5000	998.092
502.0000	960.807
502.5000	926.925
503.0000	895.229
503.5000	865.26
504.0000	838.597
504.5000	812.232
505.0000	787.829
505.5000	765.354
506.0000	743.628
506.5000	725.744
507.0000	709.253
507.5000	693.342
508.0000	678.836
508.5000	666.292
509.0000	655.707
509.5000	646.884
510.0000	637.448
510.5000	630.034
511.0000	624.176
511.5000	617.748
512.0000	613.417
512.5000	610.682
513.0000	607.271
513.5000	605.043
514.0000	603.565
514.5000	602.34
515.0000	601.789
515.5000	601.588
516.0000	601.89
516.5000	601.831
517.0000	602.953
517.5000	604.566
518.0000	606.467
518.5000	607.202
519.0000	608.246
519.5000	609.643
520.0000	611.051
520.5000	612.23
521.0000	614.391
521.5000	615.133
522.0000	616.029
522.5000	616.243
523.0000	617.68
523.5000	618.504
524.0000	618.239
524.5000	617.073
525.0000	616.835
525.5000	615.93
526.0000	614.524
526.5000	613.071
527.0000	612.217
527.5000	609.456
528.0000	606.876
528.5000	604.602
529.0000	601.339
529.5000	597.274
530.0000	592.914
530.5000	588.22
531.0000	584.416
531.5000	579.076
532.0000	573.423
532.5000	568.736
533.0000	561.842
533.5000	554.998
534.0000	549.496
534.5000	542.465
535.0000	535.426
535.5000	528.055
536.0000	520.643
536.5000	513.822
537.0000	506.135
537.5000	497.318
538.0000	490.523
538.5000	482.693
539.0000	475.59
539.5000	468.956
540.0000	461.244
540.5000	451.521
541.0000	444.21
541.5000	437.227
542.0000	430.915
542.5000	422.916
543.0000	416.265
543.5000	409.278
544.0000	402.651
544.5000	395.508
545.0000	389.33
545.5000	383.1
546.0000	376.766
546.5000	370.8
547.0000	365.52
547.5000	358.687
548.0000	353.834
548.5000	349.147
549.0000	344.212
549.5000	339.539
550.0000	334.748
550.5000	329.552
551.0000	326.138
551.5000	321.312
552.0000	317.077
552.5000	312.682
553.0000	308.779
553.5000	305.139
554.0000	301.453
554.5000	298.513
555.0000	294.87
555.5000	291.635
556.0000	288.715
556.5000	285.762
557.0000	282.072
557.5000	278.828
558.0000	276.99
558.5000	273.642
559.0000	270.592
559.5000	267.356
560.0000	265.27
560.5000	262.226
561.0000	258.989
561.5000	255.979
562.0000	253.396
562.5000	251.175
563.0000	248.648
563.5000	245.705
564.0000	243.197
564.5000	240.665
565.0000	237.828
565.5000	234.794
566.0000	231.896
566.5000	229.489
567.0000	227.147
567.5000	224.584
568.0000	221.36
568.5000	218.021
569.0000	215.616
569.5000	212.734
570.0000	210.047
570.5000	207.541
571.0000	204.771
571.5000	202.209
572.0000	199.002
572.5000	196.082
573.0000	193.733
573.5000	191.14
574.0000	188.357
574.5000	185.902
575.0000	182.791
575.5000	179.836
576.0000	177.179
576.5000	174.647
577.0000	171.813
577.5000	169.011
578.0000	166.388
578.5000	163.797
579.0000	161.339
579.5000	158.837
580.0000	156.184
580.5000	153.704
581.0000	150.966
581.5000	148.372
582.0000	145.809
582.5000	143.915
583.0000	141.564
583.5000	139.124
584.0000	136.674
584.5000	134.451
585.0000	132.789
585.5000	130.322
586.0000	128.102
586.5000	125.96
587.0000	124.18
587.5000	122.204
588.0000	119.719
588.5000	117.949
589.0000	115.761
589.5000	113.621
590.0000	111.897
590.5000	109.799
591.0000	108.656
591.5000	107.328
592.0000	105.136
592.5000	102.963
593.0000	101.616
593.5000	100.228
594.0000	98.7947
594.5000	97.0873
595.0000	94.9593
595.5000	93.4561
596.0000	92.1716
596.5000	91.0403
597.0000	89.6321
597.5000	88.0927
598.0000	86.4296
598.5000	85.2112
599.0000	84.1485
599.5000	82.8661
600.0000	81.9318
600.5000	80.5902
601.0000	79.2124
601.5000	77.8599
602.0000	76.423
602.5000	75.5525
603.0000	74.4942
603.5000	73.2087
604.0000	72.2427
604.5000	71.5985
605.0000	70.2875
605.5000	69.0646
606.0000	68.0248
606.5000	66.9961
607.0000	65.8986
607.5000	65.0982
608.0000	64.249
608.5000	63.2956
609.0000	62.2084
609.5000	61.2034
610.0000	60.4188
610.5000	59.5439
611.0000	58.6442
611.5000	57.8377
612.0000	57.0103
612.5000	56.0254
613.0000	54.8606
613.5000	54.311
614.0000	53.5276
614.5000	52.976
615.0000	52.1546
615.5000	51.1643
616.0000	50.7848
616.5000	50.1668
617.0000	49.1877
617.5000	48.3903
618.0000	47.3729
618.5000	46.6759
619.0000	46.1643
619.5000	45.5288
620.0000	44.8659
620.5000	44.2159
621.0000	43.1466
621.5000	42.6201
622.0000	42.1739
622.5000	41.4373
623.0000	40.5075
623.5000	40.0042
624.0000	39.4698
624.5000	38.6547
625.0000	37.9544
625.5000	37.5525
626.0000	36.9942
626.5000	36.1748
627.0000	35.7082
627.5000	35.2212
628.0000	34.7509
628.5000	34.1944
629.0000	33.6241
629.5000	32.9342
630.0000	32.4572
630.5000	31.9382
631.0000	31.3963
631.5000	30.8649
632.0000	30.5325
632.5000	29.7052
633.0000	29.1107
633.5000	28.8608
634.0000	28.685
634.5000	28.0498
635.0000	27.5614
635.5000	27.1644
636.0000	26.7676
636.5000	26.3049
637.0000	25.8509
637.5000	25.3513
638.0000	24.8754
638.5000	24.3456
639.0000	24.2672
639.5000	23.7836
640.0000	23.3064
640.5000	23.0302
641.0000	22.5747
641.5000	22.0698
642.0000	21.7259
642.5000	21.4168
643.0000	21.085
643.5000	20.6839
644.0000	20.3279
644.5000	20.1167
645.0000	19.7917
645.5000	19.2777
646.0000	19.0204
646.5000	18.7842
647.0000	18.5934
647.5000	18.2055
648.0000	17.9053
648.5000	17.5501
649.0000	17.1803
649.5000	16.9609
650.0000	16.8269
650.5000	16.5167
651.0000	16.0838
651.5000	15.8396
652.0000	15.6887
652.5000	15.5422
653.0000	15.4293
653.5000	15.0602
654.0000	14.7403
654.5000	14.3615
655.0000	14.1763
655.5000	14.0084
656.0000	13.7603
656.5000	13.4884
657.0000	13.1857
657.5000	12.8891
658.0000	12.8867
658.5000	12.7173
659.0000	12.439
659.5000	12.2507
660.0000	12.0237
660.5000	11.8252
661.0000	11.6277
661.5000	11.3834
662.0000	11.1521
662.5000	11.0381
663.0000	10.8902
663.5000	10.7554
664.0000	10.5446
664.5000	10.2933
665.0000	10.1645
665.5000	10.0932
666.0000	9.86417
666.5000	9.73151
667.0000	9.61225
667.5000	9.40601
668.0000	9.226
668.5000	9.04588
669.0000	8.87686
669.5000	8.75398
670.0000	8.65274
670.5000	8.54455
671.0000	8.41942
671.5000	8.29914
672.0000	8.13866
672.5000	8.0295
673.0000	7.88101
673.5000	7.65126
674.0000	7.52613
674.5000	7.38859
675.0000	7.3232
675.5000	7.16317
676.0000	7.08798
676.5000	6.92539
677.0000	6.86816
677.5000	6.7185
678.0000	6.58141
678.5000	6.56075
679.0000	6.56786
679.5000	6.44037
680.0000	6.29959
680.5000	6.13413
681.0000	6.02563
681.5000	5.9625
682.0000	5.88827
682.5000	5.80363
683.0000	5.67197
683.5000	5.52207
684.0000	5.55884
684.5000	5.47974
685.0000	5.32615
685.5000	5.24522
686.0000	5.21144
686.5000	5.08391
687.0000	4.91761
687.5000	4.89468
688.0000	4.76218
688.5000	4.67719
689.0000	4.60473
689.5000	4.62042
690.0000	4.48984
690.5000	4.51314
691.0000	4.4287
691.5000	4.26196
692.0000	4.13871
692.5000	4.10874
693.0000	4.04631
693.5000	3.95995
694.0000	3.98836
694.5000	3.95192
695.0000	3.83925
695.5000	3.77936
696.0000	3.82933
696.5000	3.6707
697.0000	3.6358
697.5000	3.59967
698.0000	3.5777
698.5000	3.43873
699.0000	3.41974
699.5000	3.28382
700.0000	3.28023

##### Extended Information
[コメント情報]
試料名
コメント
測定者
所属
会社	関西大学

[データ情報]
作成日時	2025/01/28 14:35

データタイプ	等間隔データ
横軸	Wavelength [nm]
縦軸	Int.
スタート	422 nm
エンド	700 nm
データ間隔	0.5 nm
データ数	557     

[測定情報]
機種名	FP-8300
シリアル番号	C037361450
  Ex側フォルダ	なし
  Em側フォルダ	なし

付属品名	SCE-846
付属品シリアルNo.	C037361450

測定日時	2025/01/28 14:35

測定モード	蛍光
励起側バンド幅	5 nm
蛍光側バンド幅	5 nm
レスポンス	0.1 sec
感度	Low
測定範囲	422 - 700 nm
データ取込間隔	0.5 nm
励起波長	422.0 nm
走査速度	500 nm/min
オートゲイン	Off
自動シャッタ制御	測定時のみ開く
光源	キセノンランプ
フィルタ	交換時にスキャンを停止する
ブランク補正	Off

