TITLE	
DATA TYPE	FLUORESCENCE SPECTRUM
ORIGIN	JASCO
OWNER	
DATE	25/03/14
TIME	12:54:08
SPECTROMETER/DATA SYSTEM	
LOCALE	1041
RESOLUTION	
DELTAX	0.5
XUNITS	NANOMETERS
YUNITS	INTENSITY
FIRSTX	  422.0000
LASTX	  700.0000
NPOINTS	     557
FIRSTY	    62.08581
MAXY	    62.08581
MINY	     0.72394
XYDATA
422.0000	62.0858
422.5000	53.1242
423.0000	43.516
423.5000	33.4782
424.0000	24.9642
424.5000	17.8181
425.0000	12.3313
425.5000	8.23003
426.0000	5.40118
426.5000	3.44544
427.0000	2.30456
427.5000	1.69211
428.0000	1.33485
428.5000	1.1551
429.0000	1.05767
429.5000	1.04237
430.0000	1.0561
430.5000	1.06318
431.0000	1.07754
431.5000	1.07003
432.0000	1.14066
432.5000	1.17302
433.0000	1.18737
433.5000	1.23412
434.0000	1.29758
434.5000	1.38392
435.0000	1.43244
435.5000	1.51837
436.0000	1.51739
436.5000	1.58698
437.0000	1.72078
437.5000	1.82589
438.0000	1.87732
438.5000	2.03328
439.0000	2.20963
439.5000	2.32225
440.0000	2.54328
440.5000	2.73594
441.0000	2.95317
441.5000	3.16746
442.0000	3.46198
442.5000	3.77382
443.0000	4.0907
443.5000	4.36216
444.0000	4.65653
444.5000	5.09701
445.0000	5.5771
445.5000	5.90467
446.0000	6.27998
446.5000	6.7803
447.0000	7.35681
447.5000	7.91395
448.0000	8.4124
448.5000	9.00437
449.0000	9.59969
449.5000	10.2516
450.0000	10.7994
450.5000	11.3474
451.0000	11.9478
451.5000	12.4214
452.0000	12.9217
452.5000	13.613
453.0000	13.9562
453.5000	14.3507
454.0000	14.7785
454.5000	15.1744
455.0000	15.5182
455.5000	15.6464
456.0000	16.0142
456.5000	16.1249
457.0000	16.2667
457.5000	16.4004
458.0000	16.3876
458.5000	16.3176
459.0000	16.3087
459.5000	16.1976
460.0000	16.1714
460.5000	16.2162
461.0000	15.9493
461.5000	16.0726
462.0000	15.975
462.5000	15.7889
463.0000	15.6863
463.5000	15.4857
464.0000	15.3257
464.5000	15.1935
465.0000	15.0366
465.5000	14.9498
466.0000	14.8022
466.5000	14.607
467.0000	14.3991
467.5000	14.2126
468.0000	14.2614
468.5000	14.2516
469.0000	14.0276
469.5000	13.86
470.0000	13.8427
470.5000	13.6127
471.0000	13.5381
471.5000	13.3752
472.0000	13.3558
472.5000	13.292
473.0000	13.0966
473.5000	12.9379
474.0000	12.8518
474.5000	12.7539
475.0000	12.8328
475.5000	12.7053
476.0000	12.6939
476.5000	12.8656
477.0000	12.635
477.5000	12.6776
478.0000	12.7638
478.5000	12.7464
479.0000	12.7438
479.5000	12.7718
480.0000	12.9147
480.5000	12.918
481.0000	13.0236
481.5000	13.1131
482.0000	13.0788
482.5000	13.1483
483.0000	13.1589
483.5000	13.3084
484.0000	13.4637
484.5000	13.3827
485.0000	13.3281
485.5000	13.4869
486.0000	13.3945
486.5000	13.3416
487.0000	13.5015
487.5000	13.6165
488.0000	13.5115
488.5000	13.4886
489.0000	13.4252
489.5000	13.4469
490.0000	13.2758
490.5000	13.1763
491.0000	12.9955
491.5000	12.873
492.0000	12.6053
492.5000	12.3841
493.0000	12.2076
493.5000	11.8891
494.0000	11.5694
494.5000	11.278
495.0000	11.1195
495.5000	10.9142
496.0000	10.446
496.5000	10.1942
497.0000	9.92383
497.5000	9.54803
498.0000	9.32069
498.5000	9.0156
499.0000	8.78953
499.5000	8.61087
500.0000	8.35472
500.5000	8.21315
501.0000	7.99744
501.5000	7.69849
502.0000	7.64045
502.5000	7.5569
503.0000	7.30104
503.5000	7.13131
504.0000	6.95226
504.5000	6.82225
505.0000	6.71452
505.5000	6.63102
506.0000	6.49989
506.5000	6.40284
507.0000	6.36448
507.5000	6.23554
508.0000	6.24823
508.5000	6.1038
509.0000	6.04263
509.5000	6.05237
510.0000	5.96336
510.5000	5.93245
511.0000	5.83486
511.5000	5.80436
512.0000	5.80894
512.5000	5.72099
513.0000	5.68459
513.5000	5.66308
514.0000	5.52767
514.5000	5.53278
515.0000	5.60282
515.5000	5.56695
516.0000	5.5236
516.5000	5.50329
517.0000	5.4726
517.5000	5.4303
518.0000	5.37243
518.5000	5.3551
519.0000	5.36104
519.5000	5.33141
520.0000	5.24809
520.5000	5.21902
521.0000	5.26184
521.5000	5.25533
522.0000	5.20051
522.5000	5.22459
523.0000	5.29692
523.5000	5.16418
524.0000	5.18842
524.5000	5.09689
525.0000	5.08521
525.5000	5.10075
526.0000	5.09162
526.5000	5.07156
527.0000	5.04308
527.5000	5.02398
528.0000	4.97507
528.5000	4.90649
529.0000	4.99383
529.5000	4.97254
530.0000	4.87817
530.5000	4.86396
531.0000	4.84516
531.5000	4.78803
532.0000	4.81919
532.5000	4.84035
533.0000	4.76718
533.5000	4.69718
534.0000	4.78591
534.5000	4.75427
535.0000	4.66569
535.5000	4.62665
536.0000	4.58466
536.5000	4.57854
537.0000	4.61387
537.5000	4.52266
538.0000	4.44411
538.5000	4.40955
539.0000	4.35925
539.5000	4.35565
540.0000	4.42524
540.5000	4.29813
541.0000	4.32485
541.5000	4.31423
542.0000	4.25704
542.5000	4.22006
543.0000	4.18063
543.5000	4.22346
544.0000	4.11721
544.5000	4.10279
545.0000	4.11582
545.5000	4.12095
546.0000	4.04624
546.5000	4.00068
547.0000	3.85085
547.5000	3.91169
548.0000	3.92951
548.5000	3.88574
549.0000	3.82408
549.5000	3.79679
550.0000	3.75966
550.5000	3.75658
551.0000	3.75604
551.5000	3.72527
552.0000	3.73578
552.5000	3.7314
553.0000	3.68638
553.5000	3.59762
554.0000	3.58899
554.5000	3.54101
555.0000	3.54124
555.5000	3.61034
556.0000	3.50129
556.5000	3.48799
557.0000	3.45019
557.5000	3.44134
558.0000	3.42331
558.5000	3.37045
559.0000	3.36169
559.5000	3.34027
560.0000	3.30359
560.5000	3.26548
561.0000	3.26319
561.5000	3.17796
562.0000	3.22354
562.5000	3.2565
563.0000	3.149
563.5000	3.08506
564.0000	3.09004
564.5000	3.06305
565.0000	3.10445
565.5000	3.0853
566.0000	3.1439
566.5000	3.07152
567.0000	3.072
567.5000	3.07987
568.0000	2.93723
568.5000	2.84331
569.0000	2.93109
569.5000	2.87292
570.0000	2.8654
570.5000	2.86144
571.0000	2.83129
571.5000	2.82511
572.0000	2.72458
572.5000	2.74288
573.0000	2.77892
573.5000	2.74117
574.0000	2.75411
574.5000	2.75873
575.0000	2.76272
575.5000	2.72291
576.0000	2.65013
576.5000	2.64108
577.0000	2.65721
577.5000	2.61591
578.0000	2.67059
578.5000	2.54345
579.0000	2.51946
579.5000	2.54119
580.0000	2.53246
580.5000	2.51999
581.0000	2.5553
581.5000	2.48945
582.0000	2.4231
582.5000	2.38526
583.0000	2.42543
583.5000	2.44208
584.0000	2.41477
584.5000	2.35694
585.0000	2.383
585.5000	2.41368
586.0000	2.35642
586.5000	2.30852
587.0000	2.31669
587.5000	2.30307
588.0000	2.24244
588.5000	2.27935
589.0000	2.25431
589.5000	2.27498
590.0000	2.20479
590.5000	2.23421
591.0000	2.18878
591.5000	2.15616
592.0000	2.18332
592.5000	2.16152
593.0000	2.15817
593.5000	2.16867
594.0000	2.13495
594.5000	2.12327
595.0000	2.12055
595.5000	2.08171
596.0000	2.10241
596.5000	2.04717
597.0000	2.07412
597.5000	2.02465
598.0000	1.99537
598.5000	2.01851
599.0000	2.01683
599.5000	2.00213
600.0000	1.98332
600.5000	1.96529
601.0000	1.96918
601.5000	1.99662
602.0000	1.96821
602.5000	1.95373
603.0000	1.93161
603.5000	1.86766
604.0000	1.88114
604.5000	1.8784
605.0000	1.87687
605.5000	1.84382
606.0000	1.85843
606.5000	1.85203
607.0000	1.83102
607.5000	1.84439
608.0000	1.85613
608.5000	1.82259
609.0000	1.75106
609.5000	1.81282
610.0000	1.75782
610.5000	1.7725
611.0000	1.75283
611.5000	1.7286
612.0000	1.68926
612.5000	1.67267
613.0000	1.71677
613.5000	1.72247
614.0000	1.72626
614.5000	1.75815
615.0000	1.71222
615.5000	1.68934
616.0000	1.62601
616.5000	1.62475
617.0000	1.6806
617.5000	1.65954
618.0000	1.5764
618.5000	1.58792
619.0000	1.59147
619.5000	1.60728
620.0000	1.61036
620.5000	1.59948
621.0000	1.58492
621.5000	1.63105
622.0000	1.544
622.5000	1.52655
623.0000	1.55497
623.5000	1.55584
624.0000	1.50317
624.5000	1.52006
625.0000	1.50833
625.5000	1.45254
626.0000	1.43524
626.5000	1.46008
627.0000	1.47052
627.5000	1.42628
628.0000	1.39977
628.5000	1.43316
629.0000	1.43832
629.5000	1.44227
630.0000	1.42887
630.5000	1.42436
631.0000	1.43514
631.5000	1.36944
632.0000	1.2801
632.5000	1.32501
633.0000	1.30995
633.5000	1.32172
634.0000	1.36468
634.5000	1.35083
635.0000	1.33111
635.5000	1.30057
636.0000	1.31968
636.5000	1.30179
637.0000	1.31039
637.5000	1.31239
638.0000	1.33509
638.5000	1.29169
639.0000	1.25441
639.5000	1.23904
640.0000	1.24421
640.5000	1.21764
641.0000	1.22615
641.5000	1.2422
642.0000	1.23351
642.5000	1.21051
643.0000	1.20207
643.5000	1.2011
644.0000	1.17352
644.5000	1.19362
645.0000	1.21903
645.5000	1.20753
646.0000	1.17419
646.5000	1.1586
647.0000	1.14677
647.5000	1.15268
648.0000	1.18623
648.5000	1.18098
649.0000	1.17691
649.5000	1.14319
650.0000	1.12794
650.5000	1.1535
651.0000	1.10818
651.5000	1.10326
652.0000	1.10665
652.5000	1.10464
653.0000	1.12527
653.5000	1.07463
654.0000	1.02679
654.5000	1.06963
655.0000	1.08646
655.5000	1.06309
656.0000	1.06595
656.5000	1.06857
657.0000	1.07987
657.5000	1.05229
658.0000	1.02624
658.5000	1.03076
659.0000	1.02519
659.5000	0.985441
660.0000	0.985363
660.5000	0.983299
661.0000	1.02664
661.5000	0.987613
662.0000	0.975893
662.5000	0.959852
663.0000	0.984246
663.5000	0.947982
664.0000	0.933707
664.5000	0.956466
665.0000	0.960955
665.5000	0.948992
666.0000	0.951694
666.5000	0.946802
667.0000	0.923887
667.5000	0.92503
668.0000	0.911584
668.5000	0.935748
669.0000	0.907978
669.5000	0.884851
670.0000	0.965028
670.5000	0.93534
671.0000	0.904553
671.5000	0.934122
672.0000	0.907747
672.5000	0.871987
673.0000	0.879205
673.5000	0.890399
674.0000	0.869282
674.5000	0.872882
675.0000	0.900871
675.5000	0.867436
676.0000	0.841307
676.5000	0.857323
677.0000	0.876037
677.5000	0.845389
678.0000	0.879661
678.5000	0.850251
679.0000	0.848781
679.5000	0.828207
680.0000	0.842572
680.5000	0.835433
681.0000	0.809674
681.5000	0.812001
682.0000	0.824996
682.5000	0.797352
683.0000	0.822812
683.5000	0.833972
684.0000	0.787685
684.5000	0.758972
685.0000	0.80073
685.5000	0.76914
686.0000	0.786422
686.5000	0.759667
687.0000	0.799362
687.5000	0.77918
688.0000	0.790992
688.5000	0.770675
689.0000	0.766213
689.5000	0.750785
690.0000	0.749204
690.5000	0.760011
691.0000	0.734941
691.5000	0.779067
692.0000	0.742266
692.5000	0.723943
693.0000	0.727168
693.5000	0.782402
694.0000	0.784279
694.5000	0.756347
695.0000	0.74329
695.5000	0.742767
696.0000	0.753688
696.5000	0.739746
697.0000	0.749309
697.5000	0.760131
698.0000	0.758705
698.5000	0.742318
699.0000	0.755248
699.5000	0.728741
700.0000	0.739458

##### Extended Information
[コメント情報]
試料名
コメント
測定者
所属
会社	関西大学

[データ情報]
作成日時	2025/03/14 12:54

データタイプ	等間隔データ
横軸	Wavelength [nm]
縦軸	Int.
スタート	422 nm
エンド	700 nm
データ間隔	0.5 nm
データ数	557     

[測定情報]
機種名	FP-8300
シリアル番号	C037361450
  Ex側フォルダ	なし
  Em側フォルダ	なし

付属品名	SCE-846
付属品シリアルNo.	C037361450

測定日時	2025/03/14 12:54

測定モード	蛍光
励起側バンド幅	5 nm
蛍光側バンド幅	5 nm
レスポンス	0.1 sec
感度	Low
測定範囲	422 - 700 nm
データ取込間隔	0.5 nm
励起波長	422.0 nm
走査速度	500 nm/min
オートゲイン	Off
自動シャッタ制御	測定時のみ開く
光源	キセノンランプ
フィルタ	交換時にスキャンを停止する
ブランク補正	Off

