TITLE	
DATA TYPE	FLUORESCENCE SPECTRUM
ORIGIN	JASCO
OWNER	
DATE	25/01/24
TIME	18:41:45
SPECTROMETER/DATA SYSTEM	
LOCALE	1041
RESOLUTION	
DELTAX	0.5
XUNITS	NANOMETERS
YUNITS	INTENSITY
FIRSTX	  422.0000
LASTX	  700.0000
NPOINTS	     557
FIRSTY	   114.81967
MAXY	  3231.05151
MINY	     2.96315
XYDATA
422.0000	114.82
422.5000	100.573
423.0000	84.7699
423.5000	68.4525
424.0000	52.7227
424.5000	39.1588
425.0000	28.196
425.5000	20.1621
426.0000	14.5867
426.5000	10.8969
427.0000	8.86027
427.5000	7.98947
428.0000	7.74544
428.5000	7.81722
429.0000	8.32314
429.5000	8.91117
430.0000	9.51573
430.5000	10.3793
431.0000	11.5075
431.5000	12.7932
432.0000	14.2536
432.5000	15.767
433.0000	17.5864
433.5000	19.9798
434.0000	22.7572
434.5000	25.8097
435.0000	29.6019
435.5000	34.1111
436.0000	39.4678
436.5000	45.6006
437.0000	52.7162
437.5000	61.3226
438.0000	71.2551
438.5000	82.7559
439.0000	96.4053
439.5000	111.631
440.0000	129.117
440.5000	149.558
441.0000	173.277
441.5000	201.072
442.0000	231.557
442.5000	265.346
443.0000	305.252
443.5000	350.165
444.0000	401.545
444.5000	459.119
445.0000	523.88
445.5000	596.736
446.0000	677.527
446.5000	768.103
447.0000	869.992
447.5000	979.96
448.0000	1098.41
448.5000	1225.76
449.0000	1362.14
449.5000	1505.66
450.0000	1652.51
450.5000	1802.49
451.0000	1955.55
451.5000	2106.62
452.0000	2256.72
452.5000	2402.8
453.0000	2537.41
453.5000	2662.84
454.0000	2777.17
454.5000	2881.73
455.0000	2972.13
455.5000	3050.07
456.0000	3110.97
456.5000	3158.55
457.0000	3195.65
457.5000	3218.19
458.0000	3229.62
458.5000	3231.05
459.0000	3222.47
459.5000	3202.85
460.0000	3176.23
460.5000	3143.89
461.0000	3102.82
461.5000	3055.44
462.0000	3003.09
462.5000	2948.25
463.0000	2887.93
463.5000	2826.46
464.0000	2760.2
464.5000	2691.13
465.0000	2622.06
465.5000	2555.32
466.0000	2483.78
466.5000	2414.08
467.0000	2345.35
467.5000	2275.75
468.0000	2210.47
468.5000	2143.55
469.0000	2079.94
469.5000	2023.1
470.0000	1969.72
470.5000	1917.98
471.0000	1867.56
471.5000	1820.88
472.0000	1778.94
472.5000	1743.24
473.0000	1710.98
473.5000	1684.8
474.0000	1661.76
474.5000	1644.32
475.0000	1634.64
475.5000	1629.71
476.0000	1630.23
476.5000	1635.16
477.0000	1645.11
477.5000	1662.26
478.0000	1682.52
478.5000	1706.45
479.0000	1737.61
479.5000	1772.02
480.0000	1807.3
480.5000	1844.57
481.0000	1884.41
481.5000	1923.87
482.0000	1963.41
482.5000	2003.5
483.0000	2042.23
483.5000	2077.91
484.0000	2110.32
484.5000	2143.01
485.0000	2169.04
485.5000	2193.36
486.0000	2214.57
486.5000	2232.93
487.0000	2246.61
487.5000	2255.27
488.0000	2257.79
488.5000	2257.33
489.0000	2250.92
489.5000	2241.86
490.0000	2224.28
490.5000	2201.53
491.0000	2177.12
491.5000	2144.83
492.0000	2107.03
492.5000	2065.23
493.0000	2017.96
493.5000	1967.38
494.0000	1915.44
494.5000	1863.38
495.0000	1808.98
495.5000	1751.36
496.0000	1695.22
496.5000	1637.97
497.0000	1582.3
497.5000	1525.45
498.0000	1469.6
498.5000	1417.4
499.0000	1366.99
499.5000	1316.29
500.0000	1267.29
500.5000	1219.44
501.0000	1174.08
501.5000	1133.56
502.0000	1094.34
502.5000	1056.42
503.0000	1020.67
503.5000	987.558
504.0000	955.806
504.5000	926.851
505.0000	900.248
505.5000	875.53
506.0000	851.026
506.5000	831.211
507.0000	813.691
507.5000	795.442
508.0000	779.478
508.5000	767.115
509.0000	755.581
509.5000	743.442
510.0000	733.284
510.5000	724.152
511.0000	716.275
511.5000	711.933
512.0000	706.951
512.5000	702.318
513.0000	699.681
513.5000	697.39
514.0000	694.971
514.5000	692.696
515.0000	691.958
515.5000	692.672
516.0000	692.649
516.5000	692.525
517.0000	692.345
517.5000	693.665
518.0000	696.168
518.5000	697.155
519.0000	697.805
519.5000	699.495
520.0000	700.732
520.5000	701.693
521.0000	703.536
521.5000	704.391
522.0000	704.269
522.5000	704.691
523.0000	705.779
523.5000	707.319
524.0000	707.438
524.5000	706.11
525.0000	705.374
525.5000	704.117
526.0000	703.109
526.5000	701.75
527.0000	699.051
527.5000	697.465
528.0000	695.073
528.5000	691.503
529.0000	687.298
529.5000	682.692
530.0000	678.125
530.5000	673.461
531.0000	668.132
531.5000	661.909
532.0000	655.112
532.5000	648.777
533.0000	642.123
533.5000	634.567
534.0000	627.287
534.5000	619.971
535.0000	610.907
535.5000	602.729
536.0000	595.692
536.5000	586.753
537.0000	578.305
537.5000	569.601
538.0000	561.253
538.5000	552.106
539.0000	543.683
539.5000	535.276
540.0000	526.224
540.5000	516.001
541.0000	507.547
541.5000	498.884
542.0000	490.884
542.5000	482.178
543.0000	474.64
543.5000	467.349
544.0000	459.276
544.5000	452.213
545.0000	444.608
545.5000	437.681
546.0000	430.031
546.5000	423.649
547.0000	416.418
547.5000	410.001
548.0000	403.388
548.5000	397.878
549.0000	392.019
549.5000	385.317
550.0000	379.578
550.5000	375.334
551.0000	369.682
551.5000	364.208
552.0000	359.661
552.5000	354.498
553.0000	350.22
553.5000	345.825
554.0000	341.696
554.5000	338.077
555.0000	333.513
555.5000	329.575
556.0000	326.034
556.5000	321.635
557.0000	318.237
557.5000	314.657
558.0000	310.863
558.5000	307.513
559.0000	303.864
559.5000	300.526
560.0000	297.568
560.5000	294.387
561.0000	291.075
561.5000	288.052
562.0000	284.766
562.5000	280.998
563.0000	277.882
563.5000	274.623
564.0000	270.749
564.5000	268.081
565.0000	265.433
565.5000	261.747
566.0000	258.49
566.5000	255.784
567.0000	252.54
567.5000	249.28
568.0000	246.055
568.5000	242.837
569.0000	239.595
569.5000	236.65
570.0000	233.964
570.5000	230.462
571.0000	227.203
571.5000	224.184
572.0000	220.327
572.5000	217.857
573.0000	214.512
573.5000	211.109
574.0000	208.212
574.5000	205.104
575.0000	201.718
575.5000	198.785
576.0000	195.955
576.5000	192.69
577.0000	189.326
577.5000	186.471
578.0000	183.79
578.5000	180.452
579.0000	177.437
579.5000	174.399
580.0000	171.683
580.5000	169.223
581.0000	165.949
581.5000	163.269
582.0000	160.229
582.5000	157.642
583.0000	155.152
583.5000	152.942
584.0000	150.296
584.5000	147.408
585.0000	144.657
585.5000	142.156
586.0000	140.121
586.5000	137.876
587.0000	135.531
587.5000	133.048
588.0000	130.694
588.5000	128.534
589.0000	126.103
589.5000	124.208
590.0000	122.167
590.5000	119.939
591.0000	118.444
591.5000	116.223
592.0000	114.095
592.5000	111.912
593.0000	110.32
593.5000	108.607
594.0000	106.97
594.5000	105.075
595.0000	103.482
595.5000	101.603
596.0000	99.8104
596.5000	98.0665
597.0000	96.7027
597.5000	95.3601
598.0000	93.6254
598.5000	92.2362
599.0000	90.9476
599.5000	89.3122
600.0000	87.9028
600.5000	86.5664
601.0000	85.0744
601.5000	83.801
602.0000	82.6093
602.5000	81.8604
603.0000	80.3487
603.5000	79.0082
604.0000	77.7945
604.5000	76.5894
605.0000	75.2324
605.5000	73.8482
606.0000	72.8995
606.5000	71.8464
607.0000	70.7138
607.5000	69.6254
608.0000	68.6139
608.5000	67.0907
609.0000	66.2798
609.5000	65.268
610.0000	64.5211
610.5000	63.5423
611.0000	62.4472
611.5000	61.2773
612.0000	60.5257
612.5000	59.6705
613.0000	58.8249
613.5000	57.8849
614.0000	57.1988
614.5000	56.2994
615.0000	55.2026
615.5000	54.4169
616.0000	53.1902
616.5000	52.6221
617.0000	51.6835
617.5000	50.9991
618.0000	50.2058
618.5000	49.4074
619.0000	48.6161
619.5000	48.0152
620.0000	47.3785
620.5000	46.5024
621.0000	45.7241
621.5000	45.1767
622.0000	44.193
622.5000	43.2566
623.0000	42.8818
623.5000	42.0405
624.0000	41.2777
624.5000	40.6406
625.0000	39.8143
625.5000	39.3586
626.0000	39.0463
626.5000	38.0524
627.0000	37.3637
627.5000	36.8594
628.0000	36.3371
628.5000	35.7299
629.0000	35.0365
629.5000	34.3601
630.0000	33.7587
630.5000	33.2825
631.0000	32.7998
631.5000	32.1725
632.0000	31.5864
632.5000	31.1234
633.0000	30.6334
633.5000	30.127
634.0000	29.7477
634.5000	29.0938
635.0000	28.6331
635.5000	28.1495
636.0000	27.6949
636.5000	27.1387
637.0000	26.5484
637.5000	26.1506
638.0000	25.8007
638.5000	25.4757
639.0000	24.9578
639.5000	24.5554
640.0000	24.03
640.5000	23.7229
641.0000	23.3114
641.5000	22.7564
642.0000	22.3783
642.5000	22.1581
643.0000	21.8218
643.5000	21.4246
644.0000	20.9055
644.5000	20.6869
645.0000	20.2583
645.5000	19.9958
646.0000	19.6846
646.5000	19.258
647.0000	18.8695
647.5000	18.6802
648.0000	18.2476
648.5000	18.0051
649.0000	17.6031
649.5000	17.3819
650.0000	17.1158
650.5000	16.7164
651.0000	16.5624
651.5000	16.3179
652.0000	15.9448
652.5000	15.6451
653.0000	15.421
653.5000	15.0917
654.0000	14.894
654.5000	14.6063
655.0000	14.2756
655.5000	14.1006
656.0000	13.9197
656.5000	13.783
657.0000	13.4488
657.5000	13.1277
658.0000	12.985
658.5000	12.8194
659.0000	12.5067
659.5000	12.2761
660.0000	12.0609
660.5000	12.0067
661.0000	11.6522
661.5000	11.5041
662.0000	11.3649
662.5000	11.1823
663.0000	10.9106
663.5000	10.7164
664.0000	10.5442
664.5000	10.3306
665.0000	10.1905
665.5000	9.98671
666.0000	9.8312
666.5000	9.54029
667.0000	9.46913
667.5000	9.44061
668.0000	9.25183
668.5000	8.96828
669.0000	8.81867
669.5000	8.71809
670.0000	8.60532
670.5000	8.37799
671.0000	8.24734
671.5000	8.0264
672.0000	7.86194
672.5000	7.883
673.0000	7.70294
673.5000	7.58427
674.0000	7.46129
674.5000	7.35501
675.0000	7.26327
675.5000	7.09684
676.0000	6.94578
676.5000	6.77972
677.0000	6.7142
677.5000	6.65707
678.0000	6.40849
678.5000	6.33722
679.0000	6.32294
679.5000	6.23764
680.0000	6.02209
680.5000	5.91567
681.0000	5.87901
681.5000	5.73061
682.0000	5.66965
682.5000	5.5334
683.0000	5.43876
683.5000	5.2614
684.0000	5.29431
684.5000	5.17581
685.0000	5.04941
685.5000	4.95606
686.0000	4.81823
686.5000	4.76252
687.0000	4.66728
687.5000	4.59488
688.0000	4.51787
688.5000	4.42827
689.0000	4.49304
689.5000	4.37146
690.0000	4.30074
690.5000	4.22062
691.0000	4.05363
691.5000	3.97665
692.0000	3.94283
692.5000	3.84732
693.0000	3.82489
693.5000	3.82572
694.0000	3.67536
694.5000	3.61486
695.0000	3.57279
695.5000	3.45737
696.0000	3.44431
696.5000	3.39866
697.0000	3.38154
697.5000	3.24102
698.0000	3.14234
698.5000	3.07349
699.0000	3.11011
699.5000	3.08238
700.0000	2.96315

##### Extended Information
[コメント情報]
試料名
コメント
測定者
所属
会社	関西大学

[データ情報]
作成日時	2025/01/24 18:41

データタイプ	等間隔データ
横軸	Wavelength [nm]
縦軸	Int.
スタート	422 nm
エンド	700 nm
データ間隔	0.5 nm
データ数	557     

[測定情報]
機種名	FP-8300
シリアル番号	C037361450
  Ex側フォルダ	なし
  Em側フォルダ	なし

付属品名	SCE-846
付属品シリアルNo.	C037361450

測定日時	2025/01/24 18:41

測定モード	蛍光
励起側バンド幅	5 nm
蛍光側バンド幅	5 nm
レスポンス	0.1 sec
感度	Low
測定範囲	422 - 700 nm
データ取込間隔	0.5 nm
励起波長	422.0 nm
走査速度	500 nm/min
オートゲイン	Off
自動シャッタ制御	測定時のみ開く
光源	キセノンランプ
フィルタ	交換時にスキャンを停止する
ブランク補正	Off

