TITLE	
DATA TYPE	FLUORESCENCE SPECTRUM
ORIGIN	JASCO
OWNER	
DATE	25/04/13
TIME	22:19:07
SPECTROMETER/DATA SYSTEM	
LOCALE	1041
RESOLUTION	
DELTAX	0.5
XUNITS	NANOMETERS
YUNITS	INTENSITY
FIRSTX	  422.0000
LASTX	  700.0000
NPOINTS	     557
FIRSTY	   114.51952
MAXY	  1927.20105
MINY	     2.87499
XYDATA
422.0000	114.52
422.5000	100.139
423.0000	83.7149
423.5000	66.6143
424.0000	50.9837
424.5000	37.6409
425.0000	26.5627
425.5000	18.2871
426.0000	12.7219
426.5000	8.89011
427.0000	6.73101
427.5000	5.63418
428.0000	5.17776
428.5000	5.05445
429.0000	5.21817
429.5000	5.56283
430.0000	6.02989
430.5000	6.45361
431.0000	7.08193
431.5000	7.803
432.0000	8.54467
432.5000	9.45371
433.0000	10.5457
433.5000	11.8751
434.0000	13.3966
434.5000	15.1755
435.0000	17.3793
435.5000	19.9927
436.0000	23.1966
436.5000	26.5612
437.0000	30.7109
437.5000	35.5134
438.0000	41.1983
438.5000	47.9729
439.0000	55.8124
439.5000	64.7818
440.0000	75.0088
440.5000	86.7075
441.0000	100.174
441.5000	116.196
442.0000	133.885
442.5000	154.476
443.0000	177.984
443.5000	204.072
444.0000	233.899
444.5000	268.516
445.0000	306.14
445.5000	348.814
446.0000	397.721
446.5000	450.847
447.0000	510.419
447.5000	575.33
448.0000	644.577
448.5000	720.91
449.0000	801.754
449.5000	887.555
450.0000	975.192
450.5000	1064.04
451.0000	1153.86
451.5000	1243.8
452.0000	1333.14
452.5000	1420.72
453.0000	1502.52
453.5000	1576.74
454.0000	1645.38
454.5000	1707.59
455.0000	1762.95
455.5000	1809.4
456.0000	1848.55
456.5000	1878.2
457.0000	1902.33
457.5000	1916.28
458.0000	1924.53
458.5000	1927.2
459.0000	1924.12
459.5000	1913.78
460.0000	1898.94
460.5000	1880.97
461.0000	1859.45
461.5000	1834.26
462.0000	1806.26
462.5000	1773.56
463.0000	1739.53
463.5000	1703.51
464.0000	1668.18
464.5000	1630.12
465.0000	1589.89
465.5000	1549.17
466.0000	1508.95
466.5000	1467.86
467.0000	1427.28
467.5000	1386.92
468.0000	1349.37
468.5000	1311.21
469.0000	1274.81
469.5000	1239.1
470.0000	1206.48
470.5000	1175.93
471.0000	1145.5
471.5000	1118.36
472.0000	1093.67
472.5000	1071.14
473.0000	1051.9
473.5000	1035.33
474.0000	1022.15
474.5000	1011.58
475.0000	1003.77
475.5000	999.136
476.0000	997.797
476.5000	1000.5
477.0000	1005.85
477.5000	1013.29
478.0000	1024.16
478.5000	1037.57
479.0000	1054.19
479.5000	1071.71
480.0000	1091.33
480.5000	1112.33
481.0000	1134.37
481.5000	1158.96
482.0000	1182.91
482.5000	1204.76
483.0000	1226.4
483.5000	1248.31
484.0000	1268.44
484.5000	1287.04
485.0000	1304.49
485.5000	1318.48
486.0000	1330.7
486.5000	1342.33
487.0000	1352.58
487.5000	1360.14
488.0000	1363.82
488.5000	1363.04
489.0000	1360.74
489.5000	1355.19
490.0000	1346.95
490.5000	1336.22
491.0000	1321.61
491.5000	1303.23
492.0000	1282.57
492.5000	1258.63
493.0000	1231.07
493.5000	1203.69
494.0000	1174.72
494.5000	1143.04
495.0000	1109.37
495.5000	1075.24
496.0000	1043.54
496.5000	1009.77
497.0000	976.426
497.5000	944.891
498.0000	911.89
498.5000	879.555
499.0000	849.021
499.5000	819.958
500.0000	791.729
500.5000	764.297
501.0000	737.704
501.5000	712.97
502.0000	689.967
502.5000	666.086
503.0000	644.377
503.5000	624.45
504.0000	605.209
504.5000	588.709
505.0000	572.288
505.5000	556.977
506.0000	543.336
506.5000	531.795
507.0000	520.595
507.5000	510.134
508.0000	500.481
508.5000	491.19
509.0000	484.306
509.5000	477.188
510.0000	470.926
510.5000	466.245
511.0000	461.542
511.5000	457.786
512.0000	453.629
512.5000	450.197
513.0000	448.273
513.5000	447.127
514.0000	446.064
514.5000	444.226
515.0000	443.506
515.5000	442.979
516.0000	442.538
516.5000	442.433
517.0000	442.806
517.5000	443.189
518.0000	443.974
518.5000	444.817
519.0000	444.405
519.5000	445.386
520.0000	447.036
520.5000	447.68
521.0000	447.144
521.5000	447.541
522.0000	448.791
522.5000	449.606
523.0000	449.916
523.5000	450.259
524.0000	450.291
524.5000	450.012
525.0000	450.096
525.5000	449.099
526.0000	447.986
526.5000	448.02
527.0000	447.279
527.5000	446.128
528.0000	443.597
528.5000	441.796
529.0000	439.573
529.5000	437.328
530.0000	436.047
530.5000	433.488
531.0000	430.422
531.5000	427.071
532.0000	423.497
532.5000	419.171
533.0000	416.268
533.5000	412.499
534.0000	408.127
534.5000	403.555
535.0000	399.195
535.5000	394.514
536.0000	389.826
536.5000	385.359
537.0000	380.985
537.5000	375.808
538.0000	369.948
538.5000	364.894
539.0000	359.707
539.5000	354.526
540.0000	349.948
540.5000	344.174
541.0000	339.411
541.5000	333.826
542.0000	328.637
542.5000	323.458
543.0000	318.852
543.5000	314.519
544.0000	310.416
544.5000	305.633
545.0000	301.307
545.5000	296.677
546.0000	292.725
546.5000	288.588
547.0000	284.681
547.5000	280.21
548.0000	276.96
548.5000	273.557
549.0000	270.552
549.5000	267.026
550.0000	263.414
550.5000	260.565
551.0000	257.314
551.5000	253.99
552.0000	251.098
552.5000	247.791
553.0000	245.345
553.5000	242.725
554.0000	239.128
554.5000	236.397
555.0000	234.15
555.5000	231.631
556.0000	228.887
556.5000	227.059
557.0000	224.628
557.5000	222.297
558.0000	220.224
558.5000	217.686
559.0000	215.996
559.5000	213.688
560.0000	210.777
560.5000	209.03
561.0000	207.055
561.5000	204.825
562.0000	203.208
562.5000	201.142
563.0000	198.979
563.5000	197.025
564.0000	195.129
564.5000	192.558
565.0000	190.544
565.5000	188.384
566.0000	186.303
566.5000	184.957
567.0000	183.158
567.5000	180.806
568.0000	178.247
568.5000	176.637
569.0000	174.403
569.5000	172.485
570.0000	170.335
570.5000	168.275
571.0000	166.115
571.5000	163.946
572.0000	162.115
572.5000	159.974
573.0000	157.806
573.5000	155.707
574.0000	153.671
574.5000	151.828
575.0000	149.75
575.5000	147.435
576.0000	145.806
576.5000	143.535
577.0000	141.293
577.5000	139.578
578.0000	137.568
578.5000	135.608
579.0000	133.472
579.5000	131.573
580.0000	129.997
580.5000	128.133
581.0000	126.23
581.5000	124.231
582.0000	122.326
582.5000	120.359
583.0000	118.759
583.5000	116.744
584.0000	114.81
584.5000	113.188
585.0000	111.823
585.5000	110.024
586.0000	108.473
586.5000	106.995
587.0000	105.255
587.5000	103.485
588.0000	101.915
588.5000	100.643
589.0000	99.1631
589.5000	97.4181
590.0000	95.9024
590.5000	94.3378
591.0000	93.0083
591.5000	91.814
592.0000	90.263
592.5000	88.7099
593.0000	87.3317
593.5000	86.3983
594.0000	85.0844
594.5000	83.6416
595.0000	82.8212
595.5000	81.5832
596.0000	80.2781
596.5000	78.8922
597.0000	77.9218
597.5000	77.0874
598.0000	75.9939
598.5000	74.6125
599.0000	73.5443
599.5000	72.4079
600.0000	71.259
600.5000	70.5375
601.0000	69.6925
601.5000	68.467
602.0000	67.4127
602.5000	66.4988
603.0000	65.5355
603.5000	64.5026
604.0000	63.6272
604.5000	62.7841
605.0000	61.9218
605.5000	61.2379
606.0000	60.159
606.5000	59.107
607.0000	58.3584
607.5000	57.7708
608.0000	57.0083
608.5000	56.2033
609.0000	55.2863
609.5000	54.3779
610.0000	53.5606
610.5000	52.8369
611.0000	52.048
611.5000	51.5031
612.0000	50.7752
612.5000	49.9333
613.0000	49.0647
613.5000	48.4922
614.0000	47.9369
614.5000	47.256
615.0000	46.6293
615.5000	45.8867
616.0000	45.1524
616.5000	44.5121
617.0000	43.8619
617.5000	43.349
618.0000	42.8234
618.5000	42.3153
619.0000	41.6035
619.5000	40.7511
620.0000	40.271
620.5000	39.7237
621.0000	38.997
621.5000	38.5348
622.0000	37.9721
622.5000	37.1667
623.0000	36.8221
623.5000	36.1159
624.0000	35.5425
624.5000	34.9529
625.0000	34.5177
625.5000	34.1329
626.0000	33.5321
626.5000	33.0758
627.0000	32.5608
627.5000	31.8508
628.0000	31.3194
628.5000	30.9858
629.0000	30.5407
629.5000	29.9884
630.0000	29.5041
630.5000	29.0572
631.0000	28.5567
631.5000	28.0439
632.0000	27.6681
632.5000	27.3438
633.0000	27.015
633.5000	26.6671
634.0000	26.2257
634.5000	25.8123
635.0000	25.4185
635.5000	24.8817
636.0000	24.4235
636.5000	24.0558
637.0000	23.7112
637.5000	23.3116
638.0000	22.997
638.5000	22.6692
639.0000	22.2443
639.5000	21.862
640.0000	21.5112
640.5000	21.0807
641.0000	20.7975
641.5000	20.3897
642.0000	20.1357
642.5000	19.7723
643.0000	19.4797
643.5000	19.2547
644.0000	18.8358
644.5000	18.5662
645.0000	18.3607
645.5000	18.0812
646.0000	17.6582
646.5000	17.4079
647.0000	17.3905
647.5000	16.9756
648.0000	16.4689
648.5000	16.241
649.0000	15.9511
649.5000	15.8182
650.0000	15.5953
650.5000	15.1818
651.0000	14.993
651.5000	14.8794
652.0000	14.5693
652.5000	14.2731
653.0000	14.0661
653.5000	13.8554
654.0000	13.6762
654.5000	13.4041
655.0000	13.1476
655.5000	12.9575
656.0000	12.7682
656.5000	12.5617
657.0000	12.3497
657.5000	12.2424
658.0000	11.9618
658.5000	11.7364
659.0000	11.602
659.5000	11.4472
660.0000	11.254
660.5000	11.113
661.0000	10.832
661.5000	10.613
662.0000	10.4149
662.5000	10.1554
663.0000	10.1675
663.5000	9.94345
664.0000	9.80428
664.5000	9.69249
665.0000	9.5059
665.5000	9.41328
666.0000	9.17706
666.5000	9.02593
667.0000	8.84713
667.5000	8.6867
668.0000	8.53007
668.5000	8.50303
669.0000	8.30264
669.5000	8.23769
670.0000	8.09337
670.5000	7.91968
671.0000	7.69948
671.5000	7.56775
672.0000	7.55045
672.5000	7.38157
673.0000	7.32361
673.5000	7.24918
674.0000	7.08714
674.5000	6.96368
675.0000	6.76723
675.5000	6.67908
676.0000	6.5578
676.5000	6.50721
677.0000	6.45868
677.5000	6.26716
678.0000	6.2022
678.5000	6.08552
679.0000	5.98804
679.5000	5.92803
680.0000	5.83513
680.5000	5.68426
681.0000	5.62997
681.5000	5.46904
682.0000	5.32182
682.5000	5.32811
683.0000	5.19831
683.5000	5.12732
684.0000	5.1023
684.5000	4.98702
685.0000	4.85718
685.5000	4.7745
686.0000	4.70261
686.5000	4.6375
687.0000	4.50645
687.5000	4.40919
688.0000	4.37542
688.5000	4.31782
689.0000	4.17534
689.5000	4.17136
690.0000	4.04961
690.5000	4.03406
691.0000	4.00173
691.5000	3.81318
692.0000	3.77601
692.5000	3.74014
693.0000	3.64297
693.5000	3.53587
694.0000	3.5192
694.5000	3.42762
695.0000	3.44601
695.5000	3.42356
696.0000	3.3372
696.5000	3.24635
697.0000	3.17147
697.5000	3.18672
698.0000	3.11449
698.5000	3.10267
699.0000	3.07109
699.5000	2.93372
700.0000	2.87499

##### Extended Information
[コメント情報]
試料名
コメント
測定者
所属
会社	関西大学

[データ情報]
作成日時	2025/04/13 22:19

データタイプ	等間隔データ
横軸	Wavelength [nm]
縦軸	Int.
スタート	422 nm
エンド	700 nm
データ間隔	0.5 nm
データ数	557     

[測定情報]
機種名	FP-8300
シリアル番号	C037361450
  Ex側フォルダ	なし
  Em側フォルダ	なし

付属品名	SCE-846
付属品シリアルNo.	C037361450

測定日時	2025/04/13 22:19

測定モード	蛍光
励起側バンド幅	5 nm
蛍光側バンド幅	5 nm
レスポンス	0.1 sec
感度	Low
測定範囲	422 - 700 nm
データ取込間隔	0.5 nm
励起波長	422.0 nm
走査速度	500 nm/min
オートゲイン	Off
自動シャッタ制御	測定時のみ開く
光源	キセノンランプ
フィルタ	交換時にスキャンを停止する
ブランク補正	Off

