TITLE	
DATA TYPE	FLUORESCENCE SPECTRUM
ORIGIN	JASCO
OWNER	
DATE	25/05/13
TIME	19:36:34
SPECTROMETER/DATA SYSTEM	
LOCALE	1041
RESOLUTION	
DELTAX	0.5
XUNITS	NANOMETERS
YUNITS	INTENSITY
FIRSTX	  422.0000
LASTX	  700.0000
NPOINTS	     557
FIRSTY	    78.60896
MAXY	  1801.60425
MINY	     3.65751
XYDATA
422.0000	78.609
422.5000	68.0551
423.0000	56.7244
423.5000	45.8782
424.0000	35.6993
424.5000	26.5508
425.0000	19.0636
425.5000	13.6465
426.0000	9.82763
426.5000	7.23087
427.0000	5.70894
427.5000	4.95883
428.0000	4.52039
428.5000	4.55925
429.0000	4.78919
429.5000	5.19833
430.0000	5.62122
430.5000	6.11938
431.0000	6.66648
431.5000	7.31928
432.0000	8.05175
432.5000	9.03453
433.0000	10.1849
433.5000	11.345
434.0000	12.701
434.5000	14.6474
435.0000	16.6994
435.5000	19.0692
436.0000	22.0862
436.5000	25.6055
437.0000	29.5851
437.5000	34.3478
438.0000	39.9798
438.5000	46.2138
439.0000	53.6545
439.5000	62.2675
440.0000	71.9826
440.5000	83.2974
441.0000	96.357
441.5000	111.475
442.0000	128.739
442.5000	148.272
443.0000	170.384
443.5000	195.327
444.0000	224.577
444.5000	256.899
445.0000	292.571
445.5000	333.848
446.0000	379.423
446.5000	429.792
447.0000	486.615
447.5000	548.121
448.0000	613.902
448.5000	684.118
449.0000	759.565
449.5000	839.269
450.0000	922.401
450.5000	1005.34
451.0000	1088.69
451.5000	1170.88
452.0000	1253.22
452.5000	1334.51
453.0000	1409.28
453.5000	1477.95
454.0000	1541.23
454.5000	1599.01
455.0000	1649.57
455.5000	1691.65
456.0000	1727.65
456.5000	1753.87
457.0000	1773.27
457.5000	1788.51
458.0000	1797.43
458.5000	1801.6
459.0000	1797.89
459.5000	1788.58
460.0000	1773.82
460.5000	1757.37
461.0000	1735.44
461.5000	1711.42
462.0000	1683.9
462.5000	1653.42
463.0000	1621.15
463.5000	1586.88
464.0000	1551.93
464.5000	1513.94
465.0000	1476.71
465.5000	1438.48
466.0000	1399.01
466.5000	1360.35
467.0000	1321.99
467.5000	1283.84
468.0000	1246.67
468.5000	1211.07
469.0000	1176.05
469.5000	1143.72
470.0000	1113.05
470.5000	1082.52
471.0000	1053.7
471.5000	1027.84
472.0000	1004.66
472.5000	983.893
473.0000	965.059
473.5000	950.294
474.0000	937.972
474.5000	928.359
475.0000	922.315
475.5000	918.02
476.0000	916.621
476.5000	920.031
477.0000	924.016
477.5000	932.407
478.0000	943.466
478.5000	956.825
479.0000	972.149
479.5000	988.807
480.0000	1007.17
480.5000	1027.3
481.0000	1047.17
481.5000	1068.61
482.0000	1089.43
482.5000	1109.26
483.0000	1129.61
483.5000	1148.01
484.0000	1166.92
484.5000	1182.3
485.0000	1196.66
485.5000	1209.64
486.0000	1221.17
486.5000	1229.62
487.0000	1237.25
487.5000	1242.55
488.0000	1244.62
488.5000	1244.52
489.0000	1240.04
489.5000	1234.62
490.0000	1226.07
490.5000	1215.67
491.0000	1201.41
491.5000	1185.05
492.0000	1166.74
492.5000	1144.45
493.0000	1119.39
493.5000	1093.87
494.0000	1065.91
494.5000	1037.47
495.0000	1008.09
495.5000	978.092
496.0000	946.73
496.5000	916.638
497.0000	886.303
497.5000	855.207
498.0000	826.712
498.5000	798.608
499.0000	769.859
499.5000	743.182
500.0000	716.22
500.5000	689.64
501.0000	666.008
501.5000	644.204
502.0000	623.158
502.5000	603.08
503.0000	583.653
503.5000	564.494
504.0000	548.438
504.5000	532.648
505.0000	518.199
505.5000	503.708
506.0000	492.098
506.5000	481.433
507.0000	472.304
507.5000	463.233
508.0000	454.611
508.5000	447.029
509.0000	440.217
509.5000	435.095
510.0000	429.631
510.5000	425.49
511.0000	421.795
511.5000	418.772
512.0000	416.256
512.5000	414.328
513.0000	413.152
513.5000	411.612
514.0000	410.694
514.5000	410.585
515.0000	410.299
515.5000	409.878
516.0000	410.101
516.5000	410.993
517.0000	412.045
517.5000	412.091
518.0000	412.899
518.5000	414.509
519.0000	415.625
519.5000	417.426
520.0000	417.821
520.5000	417.851
521.0000	418.934
521.5000	421.199
522.0000	422.518
522.5000	423.582
523.0000	423.771
523.5000	424.156
524.0000	423.842
524.5000	424.179
525.0000	424.862
525.5000	425.462
526.0000	424.985
526.5000	424.208
527.0000	424.271
527.5000	424.044
528.0000	423.008
528.5000	421.685
529.0000	419.601
529.5000	417.917
530.0000	416.581
530.5000	414.765
531.0000	412.95
531.5000	410.968
532.0000	408.564
532.5000	404.746
533.0000	401.943
533.5000	398.623
534.0000	396.178
534.5000	392.49
535.0000	389.394
535.5000	385.856
536.0000	381.703
536.5000	378.487
537.0000	374.602
537.5000	370.284
538.0000	365.972
538.5000	361.454
539.0000	357.544
539.5000	353.218
540.0000	350.116
540.5000	343.753
541.0000	339.499
541.5000	335.535
542.0000	331.32
542.5000	326.758
543.0000	322.948
543.5000	319.706
544.0000	315.817
544.5000	312.106
545.0000	307.347
545.5000	304.019
546.0000	300.755
546.5000	297.1
547.0000	293.052
547.5000	290.405
548.0000	287.374
548.5000	284.688
549.0000	281.472
549.5000	277.94
550.0000	275.129
550.5000	272.196
551.0000	269.268
551.5000	266.424
552.0000	264.254
552.5000	262.021
553.0000	259.176
553.5000	256.314
554.0000	253.977
554.5000	252.319
555.0000	250.029
555.5000	247.3
556.0000	244.758
556.5000	242.923
557.0000	240.643
557.5000	238.703
558.0000	236.859
558.5000	234.883
559.0000	232.678
559.5000	230.227
560.0000	228.028
560.5000	226.505
561.0000	224.99
561.5000	222.828
562.0000	220.414
562.5000	218.991
563.0000	217.118
563.5000	214.776
564.0000	212.91
564.5000	211.393
565.0000	209.021
565.5000	206.956
566.0000	204.673
566.5000	202.674
567.0000	200.693
567.5000	198.717
568.0000	196.678
568.5000	194.512
569.0000	192.602
569.5000	190.695
570.0000	188.246
570.5000	186.002
571.0000	184.029
571.5000	182.294
572.0000	180.149
572.5000	178.184
573.0000	176.509
573.5000	174.175
574.0000	171.633
574.5000	169.335
575.0000	168.066
575.5000	165.45
576.0000	163.756
576.5000	161.514
577.0000	159.431
577.5000	157.891
578.0000	155.564
578.5000	153.479
579.0000	151.221
579.5000	149.419
580.0000	147.243
580.5000	145.301
581.0000	143.192
581.5000	141.33
582.0000	139.361
582.5000	136.811
583.0000	135.495
583.5000	133.986
584.0000	132.007
584.5000	130.205
585.0000	128.894
585.5000	127.201
586.0000	125.197
586.5000	123.242
587.0000	121.491
587.5000	119.918
588.0000	117.68
588.5000	116.418
589.0000	115.087
589.5000	113.307
590.0000	111.809
590.5000	110.36
591.0000	108.523
591.5000	106.965
592.0000	105.628
592.5000	104.115
593.0000	102.732
593.5000	101.494
594.0000	99.749
594.5000	98.3272
595.0000	97.1691
595.5000	95.9618
596.0000	94.1414
596.5000	93.0115
597.0000	91.6979
597.5000	90.7137
598.0000	89.4604
598.5000	88.133
599.0000	86.8649
599.5000	85.7305
600.0000	84.5679
600.5000	83.5761
601.0000	82.2877
601.5000	81.2764
602.0000	80.4787
602.5000	79.1694
603.0000	78.2616
603.5000	77.2426
604.0000	75.8108
604.5000	74.715
605.0000	74.0171
605.5000	73.0501
606.0000	71.7136
606.5000	70.7196
607.0000	69.8023
607.5000	68.7003
608.0000	67.9174
608.5000	67.1306
609.0000	66.2561
609.5000	65.0957
610.0000	64.1656
610.5000	63.3602
611.0000	62.6741
611.5000	61.8442
612.0000	60.9203
612.5000	60.0697
613.0000	59.0954
613.5000	58.279
614.0000	57.6903
614.5000	56.6981
615.0000	56.0018
615.5000	55.3851
616.0000	54.2722
616.5000	53.6075
617.0000	52.7604
617.5000	52.1377
618.0000	51.3985
618.5000	50.7813
619.0000	49.9358
619.5000	49.2295
620.0000	48.563
620.5000	47.7561
621.0000	47.0673
621.5000	46.2846
622.0000	45.5858
622.5000	45.1077
623.0000	44.3022
623.5000	43.5815
624.0000	43.1174
624.5000	42.2539
625.0000	41.6432
625.5000	41.1571
626.0000	40.7342
626.5000	39.9866
627.0000	39.1099
627.5000	38.6839
628.0000	38.2193
628.5000	37.6033
629.0000	37.052
629.5000	36.3437
630.0000	35.9664
630.5000	35.3424
631.0000	34.7164
631.5000	34.0644
632.0000	33.7967
632.5000	33.3115
633.0000	32.6782
633.5000	32.1394
634.0000	31.5363
634.5000	31.3511
635.0000	30.8466
635.5000	30.2854
636.0000	29.7201
636.5000	29.4912
637.0000	29.1424
637.5000	28.7112
638.0000	28.2602
638.5000	27.5892
639.0000	27.0721
639.5000	26.5962
640.0000	26.2442
640.5000	25.6591
641.0000	25.2123
641.5000	24.8971
642.0000	24.6091
642.5000	24.3756
643.0000	23.894
643.5000	23.3845
644.0000	22.8662
644.5000	22.5979
645.0000	22.1467
645.5000	21.8237
646.0000	21.4827
646.5000	21.1987
647.0000	20.8745
647.5000	20.5389
648.0000	20.2412
648.5000	19.9561
649.0000	19.8149
649.5000	19.3603
650.0000	18.8246
650.5000	18.5499
651.0000	18.3887
651.5000	18.0491
652.0000	17.8085
652.5000	17.5858
653.0000	17.321
653.5000	16.9659
654.0000	16.5935
654.5000	16.4038
655.0000	16.1421
655.5000	15.9755
656.0000	15.707
656.5000	15.2966
657.0000	15.0515
657.5000	14.9479
658.0000	14.6129
658.5000	14.3408
659.0000	14.2086
659.5000	14.01
660.0000	13.6933
660.5000	13.5004
661.0000	13.1134
661.5000	12.9262
662.0000	12.6157
662.5000	12.4903
663.0000	12.3183
663.5000	12.2832
664.0000	12.1904
664.5000	11.9561
665.0000	11.6569
665.5000	11.4695
666.0000	11.2925
666.5000	11.0512
667.0000	10.8889
667.5000	10.8023
668.0000	10.5968
668.5000	10.3156
669.0000	10.1413
669.5000	10.0058
670.0000	9.9186
670.5000	9.72492
671.0000	9.5299
671.5000	9.37988
672.0000	9.14884
672.5000	9.06354
673.0000	8.95867
673.5000	8.78809
674.0000	8.58916
674.5000	8.42422
675.0000	8.31092
675.5000	8.30212
676.0000	8.06094
676.5000	7.90045
677.0000	7.88644
677.5000	7.68391
678.0000	7.54577
678.5000	7.3602
679.0000	7.23839
679.5000	7.14181
680.0000	6.93225
680.5000	6.91959
681.0000	6.86575
681.5000	6.68366
682.0000	6.5707
682.5000	6.45186
683.0000	6.41632
683.5000	6.37011
684.0000	6.21284
684.5000	6.10767
685.0000	5.96008
685.5000	5.79302
686.0000	5.60255
686.5000	5.5678
687.0000	5.54996
687.5000	5.38259
688.0000	5.3932
688.5000	5.26195
689.0000	5.16374
689.5000	5.11788
690.0000	5.08925
690.5000	4.97145
691.0000	4.82024
691.5000	4.74334
692.0000	4.6501
692.5000	4.58452
693.0000	4.52103
693.5000	4.46404
694.0000	4.40947
694.5000	4.24269
695.0000	4.17967
695.5000	4.157
696.0000	4.08721
696.5000	4.04243
697.0000	3.99193
697.5000	3.83459
698.0000	3.83114
698.5000	3.76643
699.0000	3.71014
699.5000	3.67258
700.0000	3.65751

##### Extended Information
[コメント情報]
試料名
コメント
測定者
所属
会社	関西大学

[データ情報]
作成日時	2025/05/13 19:36

データタイプ	等間隔データ
横軸	Wavelength [nm]
縦軸	Int.
スタート	422 nm
エンド	700 nm
データ間隔	0.5 nm
データ数	557     

[測定情報]
機種名	FP-8300
シリアル番号	C037361450
  Ex側フォルダ	なし
  Em側フォルダ	なし

付属品名	SCE-846
付属品シリアルNo.	C037361450

測定日時	2025/05/13 19:36

測定モード	蛍光
励起側バンド幅	5 nm
蛍光側バンド幅	5 nm
レスポンス	0.1 sec
感度	Low
測定範囲	422 - 700 nm
データ取込間隔	0.5 nm
励起波長	422.0 nm
走査速度	500 nm/min
オートゲイン	Off
自動シャッタ制御	測定時のみ開く
光源	キセノンランプ
フィルタ	交換時にスキャンを停止する
ブランク補正	Off

