TITLE	
DATA TYPE	FLUORESCENCE SPECTRUM
ORIGIN	JASCO
OWNER	
DATE	25/03/31
TIME	12:03:24
SPECTROMETER/DATA SYSTEM	
LOCALE	1041
RESOLUTION	
DELTAX	0.5
XUNITS	NANOMETERS
YUNITS	INTENSITY
FIRSTX	  422.0000
LASTX	  700.0000
NPOINTS	     557
FIRSTY	   109.38860
MAXY	  1699.89453
MINY	     4.56539
XYDATA
422.0000	109.389
422.5000	93.189
423.0000	76.1557
423.5000	59.9608
424.0000	45.5596
424.5000	33.1865
425.0000	23.371
425.5000	16.1618
426.0000	11.364
426.5000	8.02056
427.0000	6.23123
427.5000	5.33164
428.0000	4.87785
428.5000	4.87157
429.0000	5.00563
429.5000	5.28487
430.0000	5.66599
430.5000	6.16824
431.0000	6.74466
431.5000	7.33601
432.0000	8.05073
432.5000	8.9682
433.0000	10.031
433.5000	11.1116
434.0000	12.5063
434.5000	14.1782
435.0000	16.1635
435.5000	18.5038
436.0000	21.1774
436.5000	24.1776
437.0000	27.6609
437.5000	32.025
438.0000	37.1129
438.5000	43.0506
439.0000	50.0437
439.5000	58.0661
440.0000	66.943
440.5000	77.4211
441.0000	89.3566
441.5000	103.295
442.0000	119.076
442.5000	137.397
443.0000	157.561
443.5000	180.989
444.0000	207.976
444.5000	238.26
445.0000	271.47
445.5000	309.754
446.0000	352.857
446.5000	400.376
447.0000	453.157
447.5000	511.33
448.0000	572.94
448.5000	640.098
449.0000	711.207
449.5000	785.455
450.0000	862.173
450.5000	940.746
451.0000	1019.77
451.5000	1098.69
452.0000	1177.46
452.5000	1251.74
453.0000	1321.88
453.5000	1389.48
454.0000	1449.59
454.5000	1504.4
455.0000	1553.6
455.5000	1593.76
456.0000	1626.3
456.5000	1652.68
457.0000	1673.85
457.5000	1688.58
458.0000	1697.22
458.5000	1699.89
459.0000	1695.59
459.5000	1687.1
460.0000	1675.8
460.5000	1658.88
461.0000	1640.81
461.5000	1616.61
462.0000	1590.12
462.5000	1563.66
463.0000	1535.01
463.5000	1503.05
464.0000	1468.98
464.5000	1433
465.0000	1399.51
465.5000	1363.79
466.0000	1327.44
466.5000	1292.09
467.0000	1256.44
467.5000	1220.73
468.0000	1187.58
468.5000	1154.26
469.0000	1121.38
469.5000	1090.55
470.0000	1061.29
470.5000	1032.56
471.0000	1006.87
471.5000	984.068
472.0000	961.968
472.5000	943.187
473.0000	926.508
473.5000	911.124
474.0000	899.078
474.5000	889.799
475.0000	883.144
475.5000	880.846
476.0000	881.515
476.5000	884.001
477.0000	888.575
477.5000	895.858
478.0000	906.633
478.5000	917.972
479.0000	932.815
479.5000	950.966
480.0000	969.638
480.5000	987.106
481.0000	1007.05
481.5000	1029.36
482.0000	1050.63
482.5000	1070.25
483.0000	1090.05
483.5000	1108.11
484.0000	1124.89
484.5000	1142.27
485.0000	1157.75
485.5000	1172.4
486.0000	1182.71
486.5000	1191.36
487.0000	1198.92
487.5000	1205.25
488.0000	1208.4
488.5000	1208.31
489.0000	1207.46
489.5000	1203.52
490.0000	1194.69
490.5000	1184.64
491.0000	1172.16
491.5000	1157.47
492.0000	1138.77
492.5000	1117.38
493.0000	1094.64
493.5000	1068.38
494.0000	1043.41
494.5000	1016.84
495.0000	988.685
495.5000	959.342
496.0000	929.552
496.5000	900.379
497.0000	871.591
497.5000	842.783
498.0000	814.081
498.5000	787.486
499.0000	760.578
499.5000	734.491
500.0000	710.18
500.5000	684.955
501.0000	661.506
501.5000	640.15
502.0000	620.548
502.5000	600.635
503.0000	581.778
503.5000	563.913
504.0000	547.817
504.5000	533.151
505.0000	519.572
505.5000	507.416
506.0000	494.82
506.5000	483.55
507.0000	474.465
507.5000	466.45
508.0000	458.552
508.5000	450.787
509.0000	445.02
509.5000	440.121
510.0000	435.698
510.5000	431.079
511.0000	427.35
511.5000	424.948
512.0000	422.115
512.5000	420.192
513.0000	418.568
513.5000	418.318
514.0000	418.442
514.5000	416.624
515.0000	416.573
515.5000	416.947
516.0000	417.85
516.5000	419.191
517.0000	420.779
517.5000	420.676
518.0000	421.03
518.5000	422.435
519.0000	423.281
519.5000	425.407
520.0000	426.515
520.5000	426.939
521.0000	428.018
521.5000	430.49
522.0000	431.774
522.5000	432.447
523.0000	433.694
523.5000	434.068
524.0000	435.556
524.5000	435.975
525.0000	436.178
525.5000	436.164
526.0000	436.131
526.5000	436.51
527.0000	436.196
527.5000	435.447
528.0000	435.111
528.5000	433.971
529.0000	433.268
529.5000	431.722
530.0000	430.556
530.5000	429.137
531.0000	426.77
531.5000	424.32
532.0000	421.715
532.5000	418.761
533.0000	415.864
533.5000	413.015
534.0000	409.898
534.5000	406.952
535.0000	403.847
535.5000	400.635
536.0000	397.135
536.5000	393.525
537.0000	388.486
537.5000	384.37
538.0000	380.569
538.5000	376.146
539.0000	372.009
539.5000	368.668
540.0000	363.663
540.5000	358.98
541.0000	354.62
541.5000	349.717
542.0000	345.213
542.5000	341.799
543.0000	337.874
543.5000	334.338
544.0000	330.119
544.5000	325.155
545.0000	322.099
545.5000	319.577
546.0000	315.852
546.5000	311.983
547.0000	308.631
547.5000	304.577
548.0000	302.05
548.5000	298.68
549.0000	295.241
549.5000	291.565
550.0000	288.736
550.5000	286.382
551.0000	284.229
551.5000	280.754
552.0000	277.445
552.5000	275.027
553.0000	272.736
553.5000	270.08
554.0000	267.059
554.5000	264.877
555.0000	263.05
555.5000	260.601
556.0000	258.479
556.5000	256.459
557.0000	254.356
557.5000	252.028
558.0000	249.93
558.5000	247.913
559.0000	245.424
559.5000	243.024
560.0000	241.043
560.5000	239.414
561.0000	236.942
561.5000	234.461
562.0000	232.416
562.5000	230.196
563.0000	228.729
563.5000	227.079
564.0000	224.781
564.5000	222.32
565.0000	220.272
565.5000	218.655
566.0000	217.021
566.5000	214.685
567.0000	212.164
567.5000	210.314
568.0000	208.45
568.5000	206.056
569.0000	204.321
569.5000	201.985
570.0000	199.31
570.5000	197.359
571.0000	195.385
571.5000	193.339
572.0000	191.126
572.5000	188.743
573.0000	186.631
573.5000	184.346
574.0000	182.072
574.5000	180.43
575.0000	178.577
575.5000	175.875
576.0000	173.965
576.5000	172.267
577.0000	169.804
577.5000	167.409
578.0000	165.586
578.5000	163.624
579.0000	161.624
579.5000	159.475
580.0000	157.419
580.5000	155.492
581.0000	153.347
581.5000	151.035
582.0000	149.243
582.5000	147.714
583.0000	145.885
583.5000	143.658
584.0000	142.123
584.5000	140.217
585.0000	138.135
585.5000	136.342
586.0000	134.463
586.5000	132.645
587.0000	130.549
587.5000	128.974
588.0000	127.442
588.5000	125.894
589.0000	124.076
589.5000	122.637
590.0000	121.006
590.5000	119.091
591.0000	117.463
591.5000	116.356
592.0000	114.629
592.5000	113.234
593.0000	111.369
593.5000	110.097
594.0000	108.775
594.5000	107.38
595.0000	106.028
595.5000	104.657
596.0000	103.319
596.5000	102.122
597.0000	100.429
597.5000	99.3901
598.0000	98.1247
598.5000	96.5509
599.0000	95.1121
599.5000	93.9289
600.0000	93.0105
600.5000	91.3906
601.0000	90.4363
601.5000	89.5148
602.0000	88.0558
602.5000	87.0036
603.0000	85.8411
603.5000	84.6453
604.0000	83.3048
604.5000	82.479
605.0000	81.7202
605.5000	80.4559
606.0000	79.1214
606.5000	77.8806
607.0000	76.8695
607.5000	76.2021
608.0000	75.5898
608.5000	74.3679
609.0000	73.2793
609.5000	72.1236
610.0000	71.3198
610.5000	70.4173
611.0000	69.7259
611.5000	68.7321
612.0000	67.6673
612.5000	66.7774
613.0000	65.8682
613.5000	64.9983
614.0000	64.4904
614.5000	63.4862
615.0000	62.4536
615.5000	61.5339
616.0000	60.6906
616.5000	59.8518
617.0000	59.2241
617.5000	58.1843
618.0000	57.2749
618.5000	56.9326
619.0000	56.0144
619.5000	55.0045
620.0000	54.429
620.5000	53.8105
621.0000	52.7977
621.5000	52.05
622.0000	51.6371
622.5000	50.9835
623.0000	50.0631
623.5000	49.1167
624.0000	48.4617
624.5000	47.7062
625.0000	47.1768
625.5000	46.5695
626.0000	45.686
626.5000	44.9308
627.0000	44.7084
627.5000	44.0995
628.0000	43.2593
628.5000	42.3922
629.0000	41.9641
629.5000	41.452
630.0000	40.8113
630.5000	40.2489
631.0000	39.5265
631.5000	38.9789
632.0000	38.4577
632.5000	37.7729
633.0000	37.1794
633.5000	36.5165
634.0000	36.1525
634.5000	35.64
635.0000	35.2757
635.5000	34.6757
636.0000	34.1443
636.5000	33.6278
637.0000	33.0611
637.5000	32.5816
638.0000	32.0951
638.5000	31.6795
639.0000	31.1991
639.5000	30.41
640.0000	29.8778
640.5000	29.5418
641.0000	29.304
641.5000	28.7108
642.0000	28.3842
642.5000	28.0955
643.0000	27.5406
643.5000	27.1892
644.0000	26.9889
644.5000	26.6046
645.0000	25.9222
645.5000	25.4456
646.0000	25.2321
646.5000	24.8877
647.0000	24.3894
647.5000	24.0275
648.0000	23.6173
648.5000	23.4462
649.0000	23.1817
649.5000	22.8328
650.0000	22.251
650.5000	21.8346
651.0000	21.6783
651.5000	21.1808
652.0000	20.876
652.5000	20.604
653.0000	20.3375
653.5000	20.0065
654.0000	19.675
654.5000	19.4055
655.0000	19.1487
655.5000	18.6809
656.0000	18.4335
656.5000	18.1098
657.0000	17.9401
657.5000	17.5667
658.0000	17.2359
658.5000	16.9661
659.0000	16.743
659.5000	16.5119
660.0000	16.1904
660.5000	16.1095
661.0000	15.9113
661.5000	15.5431
662.0000	15.3102
662.5000	15.0724
663.0000	14.8803
663.5000	14.596
664.0000	14.3359
664.5000	14.1561
665.0000	13.975
665.5000	13.7961
666.0000	13.5632
666.5000	13.1788
667.0000	13.072
667.5000	13.0091
668.0000	12.6303
668.5000	12.4645
669.0000	12.2895
669.5000	12.1586
670.0000	11.9561
670.5000	11.7685
671.0000	11.4323
671.5000	11.1781
672.0000	11.1316
672.5000	11.0326
673.0000	10.8395
673.5000	10.737
674.0000	10.5173
674.5000	10.3415
675.0000	10.2082
675.5000	9.97863
676.0000	9.79812
676.5000	9.62969
677.0000	9.35813
677.5000	9.44064
678.0000	9.29457
678.5000	9.06783
679.0000	8.91445
679.5000	8.78245
680.0000	8.57022
680.5000	8.47018
681.0000	8.28104
681.5000	8.18188
682.0000	8.16822
682.5000	8.14206
683.0000	7.89012
683.5000	7.78684
684.0000	7.56644
684.5000	7.4321
685.0000	7.35574
685.5000	7.28033
686.0000	7.11518
686.5000	6.96716
687.0000	6.84617
687.5000	6.739
688.0000	6.77267
688.5000	6.60727
689.0000	6.41213
689.5000	6.36511
690.0000	6.27975
690.5000	6.17727
691.0000	6.10708
691.5000	5.96774
692.0000	5.83594
692.5000	5.71708
693.0000	5.62934
693.5000	5.68436
694.0000	5.53665
694.5000	5.33225
695.0000	5.23515
695.5000	5.1159
696.0000	5.08613
696.5000	5.08232
697.0000	4.97749
697.5000	4.94755
698.0000	4.95817
698.5000	4.80862
699.0000	4.67331
699.5000	4.56539
700.0000	4.56744

##### Extended Information
[コメント情報]
試料名
コメント
測定者
所属
会社	関西大学

[データ情報]
作成日時	2025/03/31 12:03

データタイプ	等間隔データ
横軸	Wavelength [nm]
縦軸	Int.
スタート	422 nm
エンド	700 nm
データ間隔	0.5 nm
データ数	557     

[測定情報]
機種名	FP-8300
シリアル番号	C037361450
  Ex側フォルダ	なし
  Em側フォルダ	なし

付属品名	SCE-846
付属品シリアルNo.	C037361450

測定日時	2025/03/31 12:03

測定モード	蛍光
励起側バンド幅	5 nm
蛍光側バンド幅	5 nm
レスポンス	0.1 sec
感度	Low
測定範囲	422 - 700 nm
データ取込間隔	0.5 nm
励起波長	422.0 nm
走査速度	500 nm/min
オートゲイン	Off
自動シャッタ制御	測定時のみ開く
光源	キセノンランプ
フィルタ	交換時にスキャンを停止する
ブランク補正	Off

