TITLE	
DATA TYPE	FLUORESCENCE SPECTRUM
ORIGIN	JASCO
OWNER	
DATE	25/04/30
TIME	16:02:16
SPECTROMETER/DATA SYSTEM	
LOCALE	1041
RESOLUTION	
DELTAX	0.5
XUNITS	NANOMETERS
YUNITS	INTENSITY
FIRSTX	  422.0000
LASTX	  700.0000
NPOINTS	     557
FIRSTY	    76.44115
MAXY	   895.08276
MINY	     1.32005
XYDATA
422.0000	76.4411
422.5000	69.2778
423.0000	60.7485
423.5000	50.8907
424.0000	40.6447
424.5000	30.9366
425.0000	22.8116
425.5000	16.0927
426.0000	11.0956
426.5000	7.48354
427.0000	5.1844
427.5000	3.81608
428.0000	3.03748
428.5000	2.75135
429.0000	2.70266
429.5000	2.7222
430.0000	2.86272
430.5000	3.08637
431.0000	3.33251
431.5000	3.64273
432.0000	4.01819
432.5000	4.44261
433.0000	4.9964
433.5000	5.69992
434.0000	6.45663
434.5000	7.38127
435.0000	8.362
435.5000	9.62209
436.0000	11.0885
436.5000	12.8186
437.0000	14.9469
437.5000	17.1877
438.0000	19.9498
438.5000	23.324
439.0000	27.1113
439.5000	31.5127
440.0000	36.5907
440.5000	42.3051
441.0000	49.2845
441.5000	56.9406
442.0000	65.8035
442.5000	76.008
443.0000	87.3156
443.5000	100.323
444.0000	115.279
444.5000	132.698
445.0000	151.226
445.5000	172.594
446.0000	196.327
446.5000	223.126
447.0000	252.773
447.5000	284.968
448.0000	319.932
448.5000	356.191
449.0000	395.49
449.5000	436.937
450.0000	479.111
450.5000	522.382
451.0000	565.044
451.5000	607.317
452.0000	649.081
452.5000	689.05
453.0000	726.16
453.5000	759.392
454.0000	789.656
454.5000	816.947
455.0000	840.67
455.5000	860.064
456.0000	873.703
456.5000	884.351
457.0000	892.076
457.5000	895.083
458.0000	894.805
458.5000	893.16
459.0000	886.659
459.5000	879.168
460.0000	869.464
460.5000	857.3
461.0000	843.766
461.5000	829.218
462.0000	813.721
462.5000	795.775
463.0000	776.982
463.5000	757.394
464.0000	736.697
464.5000	717.777
465.0000	697.742
465.5000	677.776
466.0000	657.496
466.5000	636.956
467.0000	617.245
467.5000	597.939
468.0000	578.923
468.5000	560.757
469.0000	543.603
469.5000	527.045
470.0000	511.323
470.5000	496.754
471.0000	483.759
471.5000	471.181
472.0000	460.129
472.5000	450.628
473.0000	441.452
473.5000	434.111
474.0000	428.171
474.5000	423.954
475.0000	421.062
475.5000	418.833
476.0000	420.298
476.5000	422.384
477.0000	425.247
477.5000	429.456
478.0000	435.249
478.5000	442.73
479.0000	450.818
479.5000	459.961
480.0000	469.825
480.5000	480.346
481.0000	490.321
481.5000	500.543
482.0000	510.964
482.5000	520.367
483.0000	530.28
483.5000	539.469
484.0000	548.613
484.5000	556.902
485.0000	563.086
485.5000	569.198
486.0000	573.786
486.5000	577.063
487.0000	580.458
487.5000	581.571
488.0000	581.941
488.5000	581.991
489.0000	578.797
489.5000	575.195
490.0000	570.888
490.5000	564.685
491.0000	555.884
491.5000	546.597
492.0000	536.475
492.5000	524.841
493.0000	513.413
493.5000	499.525
494.0000	485.027
494.5000	470.031
495.0000	455.036
495.5000	440.155
496.0000	424.415
496.5000	409.039
497.0000	394.038
497.5000	379.45
498.0000	364.712
498.5000	350.379
499.0000	336.7
499.5000	324.036
500.0000	311.699
500.5000	299.838
501.0000	288.328
501.5000	277.23
502.0000	266.29
502.5000	256.669
503.0000	247.708
503.5000	239.169
504.0000	231.152
504.5000	223.974
505.0000	217.259
505.5000	210.298
506.0000	204.21
506.5000	199.375
507.0000	194.611
507.5000	190.891
508.0000	187.222
508.5000	183.588
509.0000	180.39
509.5000	177.567
510.0000	175.074
510.5000	173.032
511.0000	171.159
511.5000	169.968
512.0000	168.278
512.5000	167.317
513.0000	166.488
513.5000	166.048
514.0000	165.837
514.5000	165.707
515.0000	165.746
515.5000	165.655
516.0000	165.72
516.5000	166.132
517.0000	166.47
517.5000	166.137
518.0000	166.6
518.5000	167.108
519.0000	167.493
519.5000	167.838
520.0000	168.127
520.5000	168.969
521.0000	169.198
521.5000	169.005
522.0000	168.828
522.5000	169.294
523.0000	169.314
523.5000	169.209
524.0000	169.526
524.5000	169.716
525.0000	169.688
525.5000	169.302
526.0000	168.777
526.5000	168.618
527.0000	167.872
527.5000	167.084
528.0000	166.81
528.5000	166.215
529.0000	165.472
529.5000	164.021
530.0000	162.842
530.5000	161.977
531.0000	160.574
531.5000	159.556
532.0000	158.064
532.5000	156.8
533.0000	155.346
533.5000	153.825
534.0000	151.268
534.5000	149.571
535.0000	148.028
535.5000	146.144
536.0000	144.624
536.5000	142.69
537.0000	140.823
537.5000	139.143
538.0000	137.15
538.5000	134.833
539.0000	132.832
539.5000	131.426
540.0000	129.156
540.5000	127.774
541.0000	125.942
541.5000	124.313
542.0000	122.426
542.5000	120.41
543.0000	118.494
543.5000	117.13
544.0000	115.316
544.5000	113.638
545.0000	112.229
545.5000	111.135
546.0000	109.58
546.5000	107.974
547.0000	106.487
547.5000	105.619
548.0000	104.078
548.5000	102.48
549.0000	101.508
549.5000	100.434
550.0000	99.3543
550.5000	98.2528
551.0000	97.16
551.5000	96.2535
552.0000	95.0473
552.5000	94.4078
553.0000	94.0048
553.5000	93.0652
554.0000	91.9381
554.5000	90.6853
555.0000	89.776
555.5000	88.803
556.0000	88.4296
556.5000	88.0278
557.0000	87.4119
557.5000	86.8846
558.0000	86.0785
558.5000	85.1891
559.0000	84.6398
559.5000	84.0114
560.0000	83.4228
560.5000	82.8867
561.0000	82.228
561.5000	81.5054
562.0000	80.5819
562.5000	80.0769
563.0000	79.6493
563.5000	78.772
564.0000	78.3252
564.5000	77.977
565.0000	77.3301
565.5000	76.5471
566.0000	75.6233
566.5000	75.2597
567.0000	74.5924
567.5000	73.8517
568.0000	72.7579
568.5000	72.2913
569.0000	71.6448
569.5000	70.7338
570.0000	70.1406
570.5000	69.3221
571.0000	68.5238
571.5000	68.1687
572.0000	67.6225
572.5000	66.8213
573.0000	65.8986
573.5000	64.9596
574.0000	64.1861
574.5000	63.3745
575.0000	62.6327
575.5000	61.8071
576.0000	61.0956
576.5000	60.6016
577.0000	59.821
577.5000	58.7571
578.0000	58.1498
578.5000	57.3489
579.0000	56.3751
579.5000	55.8378
580.0000	55.0793
580.5000	54.4575
581.0000	53.6602
581.5000	52.788
582.0000	51.9266
582.5000	51.5766
583.0000	50.7366
583.5000	50.0589
584.0000	49.429
584.5000	48.592
585.0000	47.7817
585.5000	46.8847
586.0000	46.1031
586.5000	45.5914
587.0000	45.1286
587.5000	44.4474
588.0000	43.8829
588.5000	43.4407
589.0000	42.6691
589.5000	42.0109
590.0000	41.5195
590.5000	40.9305
591.0000	40.3211
591.5000	39.7906
592.0000	39.3292
592.5000	38.7037
593.0000	38.1822
593.5000	37.4032
594.0000	37.0541
594.5000	36.5728
595.0000	36.1418
595.5000	35.6072
596.0000	35.2394
596.5000	34.7022
597.0000	34.192
597.5000	33.8057
598.0000	33.3766
598.5000	32.9597
599.0000	32.5037
599.5000	31.9405
600.0000	31.5865
600.5000	31.2874
601.0000	30.7464
601.5000	30.2736
602.0000	29.978
602.5000	29.5343
603.0000	29.0128
603.5000	28.6342
604.0000	28.3388
604.5000	28.0368
605.0000	27.6501
605.5000	27.3152
606.0000	27.1383
606.5000	26.4594
607.0000	26.1191
607.5000	26.1334
608.0000	25.6529
608.5000	25.1276
609.0000	24.6912
609.5000	24.4126
610.0000	24.1305
610.5000	23.7164
611.0000	23.4994
611.5000	23.218
612.0000	22.9725
612.5000	22.6479
613.0000	22.304
613.5000	22.0235
614.0000	21.8016
614.5000	21.5522
615.0000	21.129
615.5000	20.8234
616.0000	20.4927
616.5000	20.3782
617.0000	20.0483
617.5000	19.7639
618.0000	19.4775
618.5000	19.1421
619.0000	19.0084
619.5000	18.7134
620.0000	18.5725
620.5000	18.1799
621.0000	17.792
621.5000	17.6922
622.0000	17.4296
622.5000	17.1673
623.0000	16.9057
623.5000	16.5
624.0000	16.3252
624.5000	16.1113
625.0000	15.9607
625.5000	15.7046
626.0000	15.3951
626.5000	15.1887
627.0000	15.0705
627.5000	14.8805
628.0000	14.6458
628.5000	14.3813
629.0000	14.2799
629.5000	13.9473
630.0000	13.7173
630.5000	13.5249
631.0000	13.3368
631.5000	13.0786
632.0000	12.954
632.5000	12.926
633.0000	12.6555
633.5000	12.4306
634.0000	12.2256
634.5000	12.1567
635.0000	11.7967
635.5000	11.5327
636.0000	11.4686
636.5000	11.3483
637.0000	11.1202
637.5000	10.938
638.0000	10.8531
638.5000	10.6147
639.0000	10.3561
639.5000	10.186
640.0000	10.0989
640.5000	9.98089
641.0000	9.74297
641.5000	9.63769
642.0000	9.57066
642.5000	9.48352
643.0000	9.39334
643.5000	9.19454
644.0000	8.94935
644.5000	8.80471
645.0000	8.67082
645.5000	8.58259
646.0000	8.41725
646.5000	8.29492
647.0000	8.15319
647.5000	8.05232
648.0000	7.90719
648.5000	7.73788
649.0000	7.66698
649.5000	7.58578
650.0000	7.48393
650.5000	7.25029
651.0000	7.1893
651.5000	7.10103
652.0000	6.93158
652.5000	6.78721
653.0000	6.70855
653.5000	6.62724
654.0000	6.52633
654.5000	6.41857
655.0000	6.29494
655.5000	6.24595
656.0000	6.16305
656.5000	6.02606
657.0000	5.85307
657.5000	5.78065
658.0000	5.67386
658.5000	5.54952
659.0000	5.5027
659.5000	5.39848
660.0000	5.32727
660.5000	5.24487
661.0000	5.18159
661.5000	5.24095
662.0000	5.04607
662.5000	4.9446
663.0000	4.81691
663.5000	4.84386
664.0000	4.74072
664.5000	4.6713
665.0000	4.65339
665.5000	4.54796
666.0000	4.51519
666.5000	4.41718
667.0000	4.29613
667.5000	4.20294
668.0000	4.1014
668.5000	4.03493
669.0000	4.09658
669.5000	4.07517
670.0000	3.90759
670.5000	3.79297
671.0000	3.73951
671.5000	3.63014
672.0000	3.61419
672.5000	3.54349
673.0000	3.42285
673.5000	3.45388
674.0000	3.43445
674.5000	3.35433
675.0000	3.29069
675.5000	3.19659
676.0000	3.16982
676.5000	3.20084
677.0000	3.08386
677.5000	3.0449
678.0000	2.96949
678.5000	2.83626
679.0000	2.85378
679.5000	2.83102
680.0000	2.79938
680.5000	2.65626
681.0000	2.73526
681.5000	2.649
682.0000	2.63128
682.5000	2.51347
683.0000	2.38072
683.5000	2.40646
684.0000	2.42527
684.5000	2.37584
685.0000	2.31301
685.5000	2.294
686.0000	2.16034
686.5000	2.13691
687.0000	2.17252
687.5000	2.13743
688.0000	2.00875
688.5000	1.95043
689.0000	1.99502
689.5000	1.97578
690.0000	1.91127
690.5000	1.89722
691.0000	1.85705
691.5000	1.80708
692.0000	1.75846
692.5000	1.69716
693.0000	1.6835
693.5000	1.74924
694.0000	1.72143
694.5000	1.67792
695.0000	1.63338
695.5000	1.53709
696.0000	1.54235
696.5000	1.53293
697.0000	1.50096
697.5000	1.47833
698.0000	1.44071
698.5000	1.42558
699.0000	1.34655
699.5000	1.32005
700.0000	1.32063

##### Extended Information
[コメント情報]
試料名
コメント
測定者
所属
会社	関西大学

[データ情報]
作成日時	2025/04/30 16:02

データタイプ	等間隔データ
横軸	Wavelength [nm]
縦軸	Int.
スタート	422 nm
エンド	700 nm
データ間隔	0.5 nm
データ数	557     

[測定情報]
機種名	FP-8300
シリアル番号	C037361450
  Ex側フォルダ	なし
  Em側フォルダ	なし

付属品名	SCE-846
付属品シリアルNo.	C037361450

測定日時	2025/04/30 16:02

測定モード	蛍光
励起側バンド幅	5 nm
蛍光側バンド幅	5 nm
レスポンス	0.1 sec
感度	Low
測定範囲	422 - 700 nm
データ取込間隔	0.5 nm
励起波長	422.0 nm
走査速度	500 nm/min
オートゲイン	Off
自動シャッタ制御	測定時のみ開く
光源	キセノンランプ
フィルタ	交換時にスキャンを停止する
ブランク補正	Off

