TITLE	
DATA TYPE	FLUORESCENCE SPECTRUM
ORIGIN	JASCO
OWNER	
DATE	25/04/23
TIME	22:38:41
SPECTROMETER/DATA SYSTEM	
LOCALE	1041
RESOLUTION	
DELTAX	0.5
XUNITS	NANOMETERS
YUNITS	INTENSITY
FIRSTX	  422.0000
LASTX	  700.0000
NPOINTS	     557
FIRSTY	   152.03288
MAXY	   904.97760
MINY	     1.97045
XYDATA
422.0000	152.033
422.5000	140.348
423.0000	124.777
423.5000	106.287
424.0000	86.9365
424.5000	67.5496
425.0000	49.7642
425.5000	35.2042
426.0000	24.0882
426.5000	15.607
427.0000	10.3068
427.5000	6.78651
428.0000	4.5718
428.5000	3.6183
429.0000	3.22663
429.5000	3.13343
430.0000	3.22002
430.5000	3.44421
431.0000	3.70711
431.5000	3.95026
432.0000	4.31275
432.5000	4.63435
433.0000	5.31375
433.5000	5.87385
434.0000	6.62414
434.5000	7.53168
435.0000	8.59623
435.5000	9.65773
436.0000	11.0391
436.5000	12.7669
437.0000	14.7629
437.5000	17.2364
438.0000	19.808
438.5000	23.0253
439.0000	26.6546
439.5000	31.0206
440.0000	36.245
440.5000	41.8498
441.0000	48.1418
441.5000	56.0028
442.0000	64.5113
442.5000	74.2741
443.0000	85.4308
443.5000	97.9451
444.0000	111.995
444.5000	128.531
445.0000	147.538
445.5000	168.072
446.0000	190.825
446.5000	216.353
447.0000	245.516
447.5000	277.096
448.0000	310.223
448.5000	346.56
449.0000	384.77
449.5000	425.135
450.0000	467.013
450.5000	509.586
451.0000	552.833
451.5000	596.261
452.0000	637.524
452.5000	678.161
453.0000	716.004
453.5000	752.414
454.0000	784.538
454.5000	812.012
455.0000	836.942
455.5000	857.597
456.0000	873.351
456.5000	886.281
457.0000	897.102
457.5000	902.038
458.0000	904.978
458.5000	903.765
459.0000	900.435
459.5000	894.685
460.0000	885.862
460.5000	875.647
461.0000	864.121
461.5000	850.977
462.0000	836.358
462.5000	820.246
463.0000	801.635
463.5000	783.041
464.0000	763.626
464.5000	745.022
465.0000	725.817
465.5000	705.362
466.0000	685.031
466.5000	665.572
467.0000	645.69
467.5000	626.319
468.0000	606.811
468.5000	589.056
469.0000	571.932
469.5000	554.009
470.0000	538.082
470.5000	523.257
471.0000	508.875
471.5000	495.708
472.0000	483.893
472.5000	473.305
473.0000	463.339
473.5000	454.637
474.0000	447.707
474.5000	441.924
475.0000	438.187
475.5000	436.255
476.0000	434.421
476.5000	434.736
477.0000	437.335
477.5000	441.12
478.0000	444.576
478.5000	449.175
479.0000	455.584
479.5000	464.413
480.0000	472.805
480.5000	481.603
481.0000	492.335
481.5000	501.759
482.0000	511.323
482.5000	520.886
483.0000	529.604
483.5000	537.753
484.0000	545.274
484.5000	552.352
485.0000	558.429
485.5000	563.699
486.0000	568.625
486.5000	573.54
487.0000	575.749
487.5000	577.014
488.0000	578.166
488.5000	577.601
489.0000	575.272
489.5000	571.313
490.0000	567.461
490.5000	562.687
491.0000	554.994
491.5000	546.186
492.0000	536.355
492.5000	525.826
493.0000	513.591
493.5000	500.734
494.0000	487.102
494.5000	473.209
495.0000	458.387
495.5000	443.804
496.0000	429.042
496.5000	413.977
497.0000	400.091
497.5000	385.531
498.0000	370.812
498.5000	357.268
499.0000	343.882
499.5000	331.18
500.0000	317.937
500.5000	305.657
501.0000	294.527
501.5000	283.625
502.0000	272.711
502.5000	263.208
503.0000	254.3
503.5000	245.564
504.0000	237.294
504.5000	229.594
505.0000	222.949
505.5000	216.567
506.0000	210.769
506.5000	205.449
507.0000	199.898
507.5000	195.351
508.0000	191.326
508.5000	187.287
509.0000	183.757
509.5000	181.27
510.0000	178.627
510.5000	175.746
511.0000	174.045
511.5000	172.74
512.0000	171.02
512.5000	169.236
513.0000	167.907
513.5000	167.274
514.0000	166.418
514.5000	165.969
515.0000	165.425
515.5000	165.346
516.0000	165.821
516.5000	165.529
517.0000	165.054
517.5000	164.976
518.0000	164.974
518.5000	165.099
519.0000	165.417
519.5000	165.65
520.0000	165.906
520.5000	165.782
521.0000	165.586
521.5000	165.53
522.0000	165.862
522.5000	166.359
523.0000	166.436
523.5000	166.716
524.0000	166.62
524.5000	166.426
525.0000	166.71
525.5000	166.774
526.0000	166.629
526.5000	166.644
527.0000	166.442
527.5000	166.072
528.0000	165.392
528.5000	165
529.0000	164.309
529.5000	163.852
530.0000	163.329
530.5000	162.648
531.0000	162.059
531.5000	161.344
532.0000	160.502
532.5000	159.418
533.0000	157.998
533.5000	156.966
534.0000	156.339
534.5000	154.678
535.0000	153.183
535.5000	152.037
536.0000	151.106
536.5000	149.431
537.0000	147.941
537.5000	146.686
538.0000	145.364
538.5000	143.703
539.0000	142.137
539.5000	140.112
540.0000	138.722
540.5000	136.905
541.0000	135.49
541.5000	134.278
542.0000	132.922
542.5000	131.081
543.0000	129.708
543.5000	128.437
544.0000	126.989
544.5000	125.776
545.0000	124.178
545.5000	122.648
546.0000	121.573
546.5000	120.368
547.0000	119.179
547.5000	117.938
548.0000	116.817
548.5000	115.839
549.0000	114.698
549.5000	113.395
550.0000	112.291
550.5000	111.315
551.0000	110.698
551.5000	109.956
552.0000	108.88
552.5000	108.331
553.0000	107.027
553.5000	106.072
554.0000	105.932
554.5000	104.985
555.0000	103.815
555.5000	103.07
556.0000	102.767
556.5000	102.045
557.0000	100.923
557.5000	100.269
558.0000	99.8538
558.5000	99.0044
559.0000	98.4565
559.5000	97.5383
560.0000	96.9509
560.5000	96.4599
561.0000	95.8621
561.5000	95.2042
562.0000	94.4553
562.5000	93.7243
563.0000	93.0507
563.5000	92.3556
564.0000	91.7066
564.5000	91.3824
565.0000	90.456
565.5000	89.2737
566.0000	88.844
566.5000	88.3661
567.0000	87.6265
567.5000	86.8705
568.0000	86.0692
568.5000	85.5569
569.0000	84.7451
569.5000	84.0864
570.0000	83.0852
570.5000	82.2539
571.0000	81.3577
571.5000	80.5509
572.0000	79.6233
572.5000	78.879
573.0000	78.2984
573.5000	77.3328
574.0000	76.4667
574.5000	75.3724
575.0000	74.9393
575.5000	73.689
576.0000	72.9348
576.5000	72.0359
577.0000	71.4893
577.5000	70.5705
578.0000	69.423
578.5000	68.6179
579.0000	67.9845
579.5000	67.0254
580.0000	66.4523
580.5000	65.2959
581.0000	64.5835
581.5000	64.1435
582.0000	63.1913
582.5000	62.2072
583.0000	61.2193
583.5000	60.5261
584.0000	60.0957
584.5000	59.2206
585.0000	58.4104
585.5000	57.6136
586.0000	56.9235
586.5000	56.0689
587.0000	55.5421
587.5000	54.76
588.0000	53.7774
588.5000	53.1738
589.0000	52.444
589.5000	51.8031
590.0000	51.3348
590.5000	50.6249
591.0000	49.9716
591.5000	49.3724
592.0000	48.5402
592.5000	47.9258
593.0000	47.3499
593.5000	46.7492
594.0000	46.0753
594.5000	45.6992
595.0000	45.155
595.5000	44.6771
596.0000	43.7947
596.5000	43.3609
597.0000	42.7663
597.5000	42.3389
598.0000	41.5621
598.5000	41.0287
599.0000	40.8508
599.5000	40.3029
600.0000	39.4899
600.5000	39.0325
601.0000	38.6285
601.5000	38.1459
602.0000	37.6354
602.5000	37.2074
603.0000	36.7587
603.5000	36.373
604.0000	35.9185
604.5000	35.4453
605.0000	34.9479
605.5000	34.4526
606.0000	33.879
606.5000	33.7486
607.0000	33.323
607.5000	32.846
608.0000	32.5083
608.5000	32.1416
609.0000	31.6657
609.5000	31.3404
610.0000	30.8072
610.5000	30.4007
611.0000	30.1196
611.5000	29.7333
612.0000	29.2647
612.5000	29.0671
613.0000	28.5549
613.5000	28.0985
614.0000	27.9578
614.5000	27.5888
615.0000	27.1943
615.5000	26.7818
616.0000	26.3963
616.5000	26.033
617.0000	25.6816
617.5000	25.3332
618.0000	24.894
618.5000	24.8412
619.0000	24.3325
619.5000	23.9417
620.0000	23.6447
620.5000	23.2904
621.0000	23.0914
621.5000	22.7465
622.0000	22.4421
622.5000	22.0387
623.0000	21.88
623.5000	21.6524
624.0000	21.4899
624.5000	21.0519
625.0000	20.692
625.5000	20.3472
626.0000	20.1699
626.5000	19.8662
627.0000	19.5608
627.5000	19.1827
628.0000	19.0177
628.5000	18.8372
629.0000	18.472
629.5000	18.178
630.0000	17.9516
630.5000	17.7245
631.0000	17.5274
631.5000	17.1971
632.0000	16.9333
632.5000	16.7674
633.0000	16.5536
633.5000	16.2566
634.0000	16.0627
634.5000	15.8196
635.0000	15.5255
635.5000	15.1953
636.0000	15.0783
636.5000	14.9968
637.0000	14.5518
637.5000	14.4267
638.0000	14.22
638.5000	14.037
639.0000	13.8652
639.5000	13.7466
640.0000	13.4673
640.5000	13.1291
641.0000	12.8358
641.5000	12.719
642.0000	12.5075
642.5000	12.3631
643.0000	12.2856
643.5000	12.0334
644.0000	11.9589
644.5000	11.7491
645.0000	11.6028
645.5000	11.3688
646.0000	11.3195
646.5000	11.1052
647.0000	10.8339
647.5000	10.6872
648.0000	10.4994
648.5000	10.3678
649.0000	10.2068
649.5000	10.0494
650.0000	9.78824
650.5000	9.7731
651.0000	9.67748
651.5000	9.44298
652.0000	9.28621
652.5000	9.09668
653.0000	9.03493
653.5000	8.98121
654.0000	8.74502
654.5000	8.62178
655.0000	8.5709
655.5000	8.40388
656.0000	8.28436
656.5000	8.1096
657.0000	7.98446
657.5000	7.745
658.0000	7.65574
658.5000	7.60047
659.0000	7.55409
659.5000	7.38154
660.0000	7.17453
660.5000	7.08987
661.0000	7.06833
661.5000	6.84645
662.0000	6.81424
662.5000	6.66289
663.0000	6.63883
663.5000	6.56381
664.0000	6.39926
664.5000	6.32509
665.0000	6.22988
665.5000	6.09447
666.0000	5.98947
666.5000	5.96295
667.0000	5.91379
667.5000	5.77205
668.0000	5.63561
668.5000	5.57459
669.0000	5.40821
669.5000	5.36734
670.0000	5.37988
670.5000	5.18219
671.0000	5.12746
671.5000	5.01104
672.0000	4.91802
672.5000	4.89987
673.0000	4.77033
673.5000	4.7415
674.0000	4.66715
674.5000	4.57837
675.0000	4.45163
675.5000	4.46839
676.0000	4.32495
676.5000	4.2902
677.0000	4.17934
677.5000	4.10982
678.0000	4.07331
678.5000	4.01504
679.0000	3.91729
679.5000	3.88449
680.0000	3.76252
680.5000	3.73949
681.0000	3.66261
681.5000	3.52379
682.0000	3.45049
682.5000	3.50463
683.0000	3.51683
683.5000	3.39306
684.0000	3.37435
684.5000	3.31189
685.0000	3.23217
685.5000	3.15474
686.0000	3.15331
686.5000	3.09816
687.0000	2.99137
687.5000	3.0038
688.0000	2.88063
688.5000	2.92042
689.0000	2.83924
689.5000	2.80454
690.0000	2.75177
690.5000	2.73183
691.0000	2.6866
691.5000	2.58438
692.0000	2.5515
692.5000	2.48691
693.0000	2.44695
693.5000	2.39257
694.0000	2.42293
694.5000	2.32396
695.0000	2.21743
695.5000	2.23534
696.0000	2.23934
696.5000	2.16564
697.0000	2.11781
697.5000	2.08299
698.0000	2.04227
698.5000	2.02389
699.0000	2.00078
699.5000	1.97045
700.0000	2.0009

##### Extended Information
[コメント情報]
試料名
コメント
測定者
所属
会社	関西大学

[データ情報]
作成日時	2025/04/23 22:38

データタイプ	等間隔データ
横軸	Wavelength [nm]
縦軸	Int.
スタート	422 nm
エンド	700 nm
データ間隔	0.5 nm
データ数	557     

[測定情報]
機種名	FP-8300
シリアル番号	C037361450
  Ex側フォルダ	なし
  Em側フォルダ	なし

付属品名	SCE-846
付属品シリアルNo.	C037361450

測定日時	2025/04/23 22:38

測定モード	蛍光
励起側バンド幅	5 nm
蛍光側バンド幅	5 nm
レスポンス	0.1 sec
感度	Low
測定範囲	422 - 700 nm
データ取込間隔	0.5 nm
励起波長	422.0 nm
走査速度	500 nm/min
オートゲイン	Off
自動シャッタ制御	測定時のみ開く
光源	キセノンランプ
フィルタ	交換時にスキャンを停止する
ブランク補正	Off

