TITLE	
DATA TYPE	FLUORESCENCE SPECTRUM
ORIGIN	JASCO
OWNER	
DATE	25/04/16
TIME	22:38:42
SPECTROMETER/DATA SYSTEM	
LOCALE	1041
RESOLUTION	
DELTAX	0.5
XUNITS	NANOMETERS
YUNITS	INTENSITY
FIRSTX	  422.0000
LASTX	  700.0000
NPOINTS	     557
FIRSTY	   178.27589
MAXY	  1257.32043
MINY	     1.67008
XYDATA
422.0000	178.276
422.5000	157.328
423.0000	133.5
423.5000	108.324
424.0000	84.2998
424.5000	62.2573
425.0000	43.5885
425.5000	29.6467
426.0000	19.5781
426.5000	12.6737
427.0000	8.64539
427.5000	6.15685
428.0000	4.70539
428.5000	4.27451
429.0000	4.14071
429.5000	4.20929
430.0000	4.4309
430.5000	4.68142
431.0000	4.9962
431.5000	5.46998
432.0000	5.95233
432.5000	6.53463
433.0000	7.39528
433.5000	8.1824
434.0000	9.14034
434.5000	10.3118
435.0000	11.697
435.5000	13.2017
436.0000	15.2675
436.5000	17.6811
437.0000	20.3347
437.5000	23.5597
438.0000	27.3913
438.5000	31.5852
439.0000	36.6123
439.5000	42.4216
440.0000	49.1576
440.5000	56.851
441.0000	66.0654
441.5000	76.5003
442.0000	88.0784
442.5000	101.427
443.0000	116.683
443.5000	133.807
444.0000	153.81
444.5000	176.07
445.0000	201.288
445.5000	229.587
446.0000	261.854
446.5000	297.479
447.0000	337.912
447.5000	381.955
448.0000	428.042
448.5000	479.855
449.0000	534.289
449.5000	591.937
450.0000	652.251
450.5000	713.546
451.0000	774.645
451.5000	836.989
452.0000	897.595
452.5000	954.915
453.0000	1009.28
453.5000	1059.46
454.0000	1104
454.5000	1143.17
455.0000	1177.81
455.5000	1205.45
456.0000	1226.72
456.5000	1241.5
457.0000	1252.21
457.5000	1256.79
458.0000	1257.32
458.5000	1254.74
459.0000	1244.55
459.5000	1233.53
460.0000	1219.15
460.5000	1200.54
461.0000	1180.78
461.5000	1159.67
462.0000	1135.51
462.5000	1111.66
463.0000	1086.33
463.5000	1058.95
464.0000	1029.96
464.5000	1003.03
465.0000	974.273
465.5000	945.079
466.0000	914.785
466.5000	885.933
467.0000	858.338
467.5000	831.42
468.0000	805.795
468.5000	780.929
469.0000	755.847
469.5000	732.093
470.0000	710.638
470.5000	690.055
471.0000	670.626
471.5000	652.546
472.0000	636.393
472.5000	621.695
473.0000	609.421
473.5000	599.316
474.0000	590.321
474.5000	583.606
475.0000	578.675
475.5000	576.17
476.0000	575.673
476.5000	576.63
477.0000	580.22
477.5000	586.503
478.0000	594.698
478.5000	603.683
479.0000	613.922
479.5000	626.432
480.0000	638.728
480.5000	651.708
481.0000	665.461
481.5000	681.035
482.0000	696.231
482.5000	709.267
483.0000	722.125
483.5000	734.876
484.0000	746.694
484.5000	756.22
485.0000	763.682
485.5000	771.02
486.0000	778.128
486.5000	782.811
487.0000	785.468
487.5000	786.558
488.0000	787.187
488.5000	785.691
489.0000	782.397
489.5000	776.27
490.0000	768.297
490.5000	758.582
491.0000	746.83
491.5000	733.558
492.0000	719.154
492.5000	703.28
493.0000	686.159
493.5000	667.504
494.0000	648.785
494.5000	629.131
495.0000	607.274
495.5000	586.325
496.0000	565.541
496.5000	543.63
497.0000	522.599
497.5000	502.97
498.0000	483.657
498.5000	464.626
499.0000	446.107
499.5000	428.101
500.0000	410.613
500.5000	394.257
501.0000	378.193
501.5000	363.079
502.0000	349.404
502.5000	336.488
503.0000	324.038
503.5000	312.339
504.0000	301.08
504.5000	290.866
505.0000	282.15
505.5000	273.624
506.0000	265.071
506.5000	257.166
507.0000	251.338
507.5000	246.116
508.0000	240.572
508.5000	235.317
509.0000	230.621
509.5000	226.789
510.0000	223.596
510.5000	220.735
511.0000	217.719
511.5000	215.712
512.0000	213.63
512.5000	211.684
513.0000	210.855
513.5000	209.383
514.0000	208.242
514.5000	207.514
515.0000	207.376
515.5000	207.145
516.0000	206.865
516.5000	206.691
517.0000	207.116
517.5000	206.077
518.0000	206.507
518.5000	206.776
519.0000	206.553
519.5000	206.71
520.0000	207.033
520.5000	206.892
521.0000	206.572
521.5000	206.756
522.0000	206.777
522.5000	207.262
523.0000	206.309
523.5000	205.722
524.0000	205.85
524.5000	205.613
525.0000	204.778
525.5000	203.824
526.0000	203.153
526.5000	202.465
527.0000	201.529
527.5000	200.399
528.0000	199.421
528.5000	198.645
529.0000	197.14
529.5000	195.26
530.0000	193.904
530.5000	191.889
531.0000	190.741
531.5000	189.102
532.0000	187.107
532.5000	184.772
533.0000	182.827
533.5000	181.393
534.0000	179.123
534.5000	176.953
535.0000	174.958
535.5000	172.699
536.0000	170.447
536.5000	168.211
537.0000	165.697
537.5000	163.214
538.0000	160.854
538.5000	158.527
539.0000	156.36
539.5000	154.341
540.0000	151.945
540.5000	149.817
541.0000	147.645
541.5000	145.373
542.0000	143.273
542.5000	141.317
543.0000	139.529
543.5000	137.673
544.0000	135.804
544.5000	133.978
545.0000	132.195
545.5000	130.447
546.0000	128.871
546.5000	127.41
547.0000	125.853
547.5000	124.131
548.0000	122.482
548.5000	121.732
549.0000	120.307
549.5000	119.15
550.0000	117.923
550.5000	116.774
551.0000	115.559
551.5000	114.844
552.0000	113.65
552.5000	112.901
553.0000	111.836
553.5000	110.704
554.0000	109.96
554.5000	109.224
555.0000	108.575
555.5000	108.056
556.0000	107.062
556.5000	106.239
557.0000	105.685
557.5000	104.716
558.0000	104.422
558.5000	103.822
559.0000	103.088
559.5000	102.194
560.0000	101.38
560.5000	101.076
561.0000	100.27
561.5000	99.632
562.0000	98.9402
562.5000	98.0913
563.0000	97.5004
563.5000	96.9163
564.0000	96.2616
564.5000	96.026
565.0000	95.046
565.5000	94.2706
566.0000	93.6235
566.5000	92.6679
567.0000	92.1174
567.5000	91.1276
568.0000	89.9609
568.5000	89.7153
569.0000	89.0721
569.5000	88.0625
570.0000	87.1537
570.5000	86.3533
571.0000	85.4102
571.5000	84.2081
572.0000	83.3699
572.5000	82.7778
573.0000	81.9377
573.5000	81.0434
574.0000	79.8719
574.5000	78.7769
575.0000	78.0953
575.5000	77.4196
576.0000	76.313
576.5000	75.192
577.0000	74.1598
577.5000	73.3513
578.0000	72.2148
578.5000	71.4648
579.0000	70.4944
579.5000	69.4787
580.0000	68.5282
580.5000	67.7545
581.0000	66.6885
581.5000	65.8622
582.0000	64.9198
582.5000	63.9427
583.0000	63.26
583.5000	62.3149
584.0000	61.4042
584.5000	60.5829
585.0000	59.5661
585.5000	58.529
586.0000	57.88
586.5000	57.1319
587.0000	56.6969
587.5000	55.7682
588.0000	54.6783
588.5000	53.8686
589.0000	53.0863
589.5000	52.4555
590.0000	51.9045
590.5000	51.2111
591.0000	50.3791
591.5000	49.5772
592.0000	48.801
592.5000	48.1768
593.0000	47.6461
593.5000	46.9593
594.0000	46.2125
594.5000	45.4961
595.0000	44.8682
595.5000	44.327
596.0000	43.8943
596.5000	43.2091
597.0000	42.5598
597.5000	41.8124
598.0000	41.1695
598.5000	40.7434
599.0000	40.2447
599.5000	39.7381
600.0000	39.0927
600.5000	38.6417
601.0000	38.1301
601.5000	37.7229
602.0000	37.1794
602.5000	36.6333
603.0000	35.9492
603.5000	35.4748
604.0000	35.1648
604.5000	34.5392
605.0000	34.0842
605.5000	33.6826
606.0000	33.1022
606.5000	32.8837
607.0000	32.5177
607.5000	31.8934
608.0000	31.2084
608.5000	30.8684
609.0000	30.5202
609.5000	30.1565
610.0000	29.7475
610.5000	29.4008
611.0000	28.9129
611.5000	28.6299
612.0000	28.1717
612.5000	27.8815
613.0000	27.4849
613.5000	27.0882
614.0000	26.5918
614.5000	26.4698
615.0000	26.0794
615.5000	25.5229
616.0000	25.1803
616.5000	24.8722
617.0000	24.5216
617.5000	24.1346
618.0000	23.639
618.5000	23.4375
619.0000	23.1249
619.5000	22.7851
620.0000	22.4004
620.5000	22.1134
621.0000	21.7645
621.5000	21.5526
622.0000	21.2427
622.5000	20.9214
623.0000	20.6083
623.5000	20.2499
624.0000	19.933
624.5000	19.6365
625.0000	19.3661
625.5000	18.8699
626.0000	18.7218
626.5000	18.4664
627.0000	18.0717
627.5000	17.8287
628.0000	17.5649
628.5000	17.3851
629.0000	17.1889
629.5000	16.8753
630.0000	16.6657
630.5000	16.2629
631.0000	16.0002
631.5000	15.8041
632.0000	15.6774
632.5000	15.4486
633.0000	14.989
633.5000	14.6962
634.0000	14.5681
634.5000	14.351
635.0000	14.1888
635.5000	13.8363
636.0000	13.6689
636.5000	13.4987
637.0000	13.324
637.5000	13.1297
638.0000	12.8934
638.5000	12.494
639.0000	12.4259
639.5000	12.342
640.0000	12.0821
640.5000	11.8579
641.0000	11.642
641.5000	11.373
642.0000	11.2816
642.5000	11.1175
643.0000	10.8087
643.5000	10.7104
644.0000	10.5486
644.5000	10.4336
645.0000	10.2768
645.5000	10.0013
646.0000	9.84132
646.5000	9.75314
647.0000	9.47635
647.5000	9.35761
648.0000	9.17133
648.5000	9.17684
649.0000	8.98424
649.5000	8.8073
650.0000	8.72615
650.5000	8.58997
651.0000	8.37606
651.5000	8.18446
652.0000	8.10343
652.5000	8.00414
653.0000	7.88755
653.5000	7.73377
654.0000	7.53511
654.5000	7.42546
655.0000	7.34865
655.5000	7.22845
656.0000	7.019
656.5000	6.99957
657.0000	6.94417
657.5000	6.83001
658.0000	6.72109
658.5000	6.52225
659.0000	6.34799
659.5000	6.31917
660.0000	6.32316
660.5000	6.24095
661.0000	6.14095
661.5000	5.99231
662.0000	5.9367
662.5000	5.76323
663.0000	5.71751
663.5000	5.59819
664.0000	5.53377
664.5000	5.38074
665.0000	5.26039
665.5000	5.23086
666.0000	5.22587
666.5000	5.11893
667.0000	5.01871
667.5000	4.86393
668.0000	4.76998
668.5000	4.74527
669.0000	4.70406
669.5000	4.62204
670.0000	4.47652
670.5000	4.3908
671.0000	4.3844
671.5000	4.33566
672.0000	4.2183
672.5000	4.14079
673.0000	4.05219
673.5000	3.94893
674.0000	3.86248
674.5000	3.91322
675.0000	3.84224
675.5000	3.81068
676.0000	3.73401
676.5000	3.59602
677.0000	3.55041
677.5000	3.55115
678.0000	3.44857
678.5000	3.37193
679.0000	3.34008
679.5000	3.2667
680.0000	3.22757
680.5000	3.11777
681.0000	3.0114
681.5000	2.99132
682.0000	2.99734
682.5000	2.9958
683.0000	2.92471
683.5000	2.87821
684.0000	2.84426
684.5000	2.79228
685.0000	2.78298
685.5000	2.80092
686.0000	2.65106
686.5000	2.58049
687.0000	2.57041
687.5000	2.51126
688.0000	2.45744
688.5000	2.38206
689.0000	2.34889
689.5000	2.31948
690.0000	2.28541
690.5000	2.21149
691.0000	2.20952
691.5000	2.14589
692.0000	2.15932
692.5000	2.10284
693.0000	2.07322
693.5000	2.03043
694.0000	1.95945
694.5000	1.97575
695.0000	1.93506
695.5000	1.95564
696.0000	1.89402
696.5000	1.85712
697.0000	1.82977
697.5000	1.79002
698.0000	1.75957
698.5000	1.73498
699.0000	1.73564
699.5000	1.73327
700.0000	1.67008

##### Extended Information
[コメント情報]
試料名
コメント
測定者
所属
会社	関西大学

[データ情報]
作成日時	2025/04/16 22:38

データタイプ	等間隔データ
横軸	Wavelength [nm]
縦軸	Int.
スタート	422 nm
エンド	700 nm
データ間隔	0.5 nm
データ数	557     

[測定情報]
機種名	FP-8300
シリアル番号	C037361450
  Ex側フォルダ	なし
  Em側フォルダ	なし

付属品名	SCE-846
付属品シリアルNo.	C037361450

測定日時	2025/04/16 22:38

測定モード	蛍光
励起側バンド幅	5 nm
蛍光側バンド幅	5 nm
レスポンス	0.1 sec
感度	Low
測定範囲	422 - 700 nm
データ取込間隔	0.5 nm
励起波長	422.0 nm
走査速度	500 nm/min
オートゲイン	Off
自動シャッタ制御	測定時のみ開く
光源	キセノンランプ
フィルタ	交換時にスキャンを停止する
ブランク補正	Off

